%OpenBCI Raw EEG Data
%
%Sample Rate = 250.0 Hz
%First Column = SampleIndex
%Other Columns = EEG data in microvolts followed by Accel Data (in G) interleaved with Aux Data
0, -174124.36, -174064.19, -174070.94, -174079.77, -124831.20, -20514.81, -174423.59, -174327.98, 0.03, 0.01, 0.52
1, -174109.22, -174070.17, -174091.00, -174162.48, -124980.06, -20647.15, -174428.78, -174336.89, 0.03, 0.01, 0.52
2, -173993.73, -174081.39, -174106.25, -174028.19, -125040.59, -20672.88, -174490.56, -174326.19, 0.05, 0.05, 1.03
3, -173915.97, -174063.27, -174094.94, -173881.30, -125027.92, -20624.38, -174490.34, -174303.53, 0.05, 0.05, 1.03
4, -174072.09, -174057.41, -174060.97, -174033.06, -125086.08, -20663.27, -174414.95, -174309.20, 0.05, 0.05, 1.03
5, -174302.52, -174053.44, -174067.02, -174144.69, -125225.24, -20792.40, -174402.72, -174308.00, 0.05, 0.05, 1.03
6, -174287.81, -174081.39, -174087.61, -174038.83, -125301.02, -20840.95, -174469.94, -174304.34, 0.05, 0.05, 1.03
7, -174166.59, -174073.86, -174078.33, -173868.88, -125298.51, -20802.16, -174473.73, -174289.20, 0.05, 0.04, 1.02
8, -174082.73, -174041.50, -174044.80, -173989.92, -125354.08, -20834.48, -174411.48, -174295.97, 0.05, 0.04, 1.02
9, -174070.95, -174035.42, -174043.27, -174132.52, -125503.55, -20970.58, -174380.23, -174303.61, 0.05, 0.04, 1.02
10, -174000.80, -174044.69, -174069.08, -174062.14, -125605.83, -21047.88, -174437.50, -174286.69, 0.05, 0.04, 1.02
11, -173880.52, -174037.25, -174068.97, -173866.33, -125602.92, -21008.20, -174467.94, -174270.13, 0.05, 0.04, 1.02
12, -173973.66, -174025.92, -174043.97, -173906.44, -125624.00, -21005.48, -174415.91, -174272.77, 0.05, 0.04, 1.02
13, -174213.52, -174024.06, -174025.45, -174082.95, -125744.36, -21113.32, -174366.25, -174294.50, 0.05, 0.04, 1.02
14, -174292.28, -174031.09, -174043.02, -174050.88, -125862.31, -21209.32, -174402.44, -174278.13, 0.05, 0.04, 1.02
15, -174186.80, -174044.25, -174049.31, -173865.66, -125879.73, -21186.86, -174445.61, -174254.23, 0.05, 0.04, 1.02
16, -174078.31, -174017.69, -174020.22, -173880.25, -125901.31, -21178.25, -174395.66, -174252.16, 0.05, 0.04, 1.02
17, -174053.30, -174000.05, -173998.36, -174069.91, -126032.52, -21294.42, -174336.58, -174250.38, 0.05, 0.04, 1.01
18, -174026.97, -174006.14, -174022.23, -174065.19, -126167.19, -21411.00, -174372.75, -174256.41, 0.05, 0.04, 1.01
19, -173882.69, -174009.59, -174035.08, -173889.53, -126194.34, -21401.17, -174423.47, -174242.95, 0.05, 0.04, 1.01
20, -173860.38, -173991.73, -174014.20, -173823.13, -126191.48, -21367.66, -174400.02, -174224.11, 0.05, 0.04, 1.01
21, -174064.22, -173980.86, -173984.28, -174011.92, -126282.84, -21441.04, -174331.59, -174230.02, 0.05, 0.04, 1.01
22, -174251.95, -173987.00, -174000.08, -174052.95, -126412.88, -21557.50, -174347.41, -174251.56, 0.05, 0.03, 1.02
23, -174189.86, -174009.69, -174013.27, -173898.73, -126456.87, -21569.54, -174405.58, -174231.69, 0.05, 0.03, 1.02
24, -174068.72, -173995.06, -173996.95, -173795.77, -126458.14, -21537.04, -174387.34, -174210.31, 0.05, 0.03, 1.02
25, -174011.83, -173962.14, -173965.34, -173979.17, -126551.23, -21608.08, -174315.91, -174235.23, 0.05, 0.03, 1.02
26, -174003.39, -173966.23, -173976.66, -174056.20, -126704.70, -21747.44, -174317.06, -174229.97, 0.05, 0.03, 1.02
27, -173902.84, -173972.16, -173992.34, -173932.55, -126774.87, -21785.15, -174376.50, -174212.83, 0.05, 0.03, 1.02
28, -173802.05, -173960.31, -173984.13, -173772.02, -126768.74, -21743.49, -174381.64, -174191.19, 0.05, 0.03, 1.02
29, -173937.47, -173950.92, -173957.52, -173903.47, -126821.00, -21776.72, -174313.30, -174204.48, 0.05, 0.03, 1.02
30, -174179.38, -173945.61, -173958.53, -174025.11, -126957.05, -21902.03, -174293.52, -174212.80, 0.05, 0.03, 1.02
31, -174189.91, -173970.58, -173977.19, -173930.03, -127039.96, -21959.20, -174358.55, -174196.95, 0.05, 0.03, 1.02
32, -174069.70, -173963.36, -173966.58, -173753.56, -127039.31, -21922.75, -174364.08, -174177.55, 0.05, 0.03, 1.02
33, -173984.77, -173929.73, -173938.31, -173859.13, -127090.85, -21950.37, -174296.70, -174176.20, 0.06, 0.04, 1.03
34, -173969.75, -173919.16, -173934.41, -174010.53, -127234.48, -22081.58, -174271.00, -174201.91, 0.06, 0.04, 1.03
35, -173914.98, -173933.38, -173956.72, -173951.69, -127343.52, -22167.05, -174317.42, -174180.50, 0.06, 0.04, 1.03
36, -173771.19, -173927.41, -173960.20, -173762.48, -127346.65, -22132.00, -174357.50, -174162.59, 0.06, 0.04, 1.03
37, -173832.11, -173912.19, -173928.89, -173795.89, -127363.68, -22123.44, -174302.97, -174163.88, 0.06, 0.04, 1.03
38, -174072.27, -173907.92, -173915.55, -173982.16, -127482.52, -22227.85, -174254.91, -174165.45, 0.05, 0.04, 1.03
39, -174177.45, -173925.75, -173935.77, -173957.91, -127598.33, -22321.50, -174300.89, -174168.61, 0.05, 0.04, 1.03
40, -174077.75, -173932.86, -173934.31, -173772.83, -127616.77, -22301.94, -174336.58, -174146.25, 0.05, 0.04, 1.03
41, -173968.84, -173908.88, -173911.47, -173755.45, -127638.52, -22293.34, -174294.63, -174141.70, 0.05, 0.04, 1.03
42, -173936.52, -173883.94, -173889.13, -173950.13, -127764.22, -22403.51, -174236.31, -174165.44, 0.05, 0.04, 1.03
43, -173914.61, -173893.59, -173910.56, -173961.92, -127905.93, -22528.57, -174259.61, -174149.36, 0.05, 0.04, 1.02
44, -173776.14, -173903.78, -173925.69, -173791.53, -127939.46, -22525.64, -174323.42, -174129.63, 0.05, 0.04, 1.02
45, -173755.73, -173884.16, -173907.83, -173710.11, -127932.64, -22489.10, -174297.47, -174121.06, 0.05, 0.04, 1.02
46, -173958.03, -173871.89, -173876.30, -173893.44, -128021.51, -22563.01, -174219.28, -174122.61, 0.05, 0.04, 1.02
47, -174142.23, -173880.19, -173891.78, -173939.84, -128157.74, -22685.72, -174241.47, -174130.92, 0.05, 0.04, 1.02
48, -174080.20, -173901.91, -173905.97, -173790.44, -128206.27, -22701.24, -174294.19, -174114.52, 0.05, 0.03, 1.02
49, -173957.63, -173885.55, -173891.02, -173690.06, -128203.99, -22667.51, -174283.23, -174100.09, 0.05, 0.03, 1.02
50, -173900.17, -173846.09, -173853.69, -173871.83, -128293.78, -22739.26, -174205.41, -174115.69, 0.05, 0.03, 1.02
51, -173892.09, -173852.63, -173867.42, -173950.02, -128448.77, -22882.53, -174206.61, -174114.89, 0.05, 0.03, 1.02
52, -173795.36, -173863.03, -173886.66, -173833.67, -128522.21, -22926.38, -174264.25, -174105.73, 0.05, 0.03, 1.02
53, -173695.27, -173850.66, -173877.61, -173664.11, -128514.66, -22882.22, -174270.16, -174079.50, 0.05, 0.03, 1.02
54, -173830.69, -173839.45, -173846.75, -173784.52, -128561.40, -22910.11, -174207.70, -174090.73, 0.05, 0.03, 1.02
55, -174068.20, -173835.17, -173849.14, -173913.31, -128695.35, -23032.91, -174185.28, -174111.66, 0.05, 0.03, 1.02
56, -174076.14, -173861.86, -173864.17, -173824.80, -128783.48, -23094.78, -174246.42, -174095.36, 0.05, 0.03, 1.02
57, -173961.20, -173857.66, -173852.58, -173647.05, -128789.18, -23062.82, -174251.80, -174065.09, 0.05, 0.03, 1.02
58, -173872.53, -173824.53, -173830.53, -173739.86, -128838.05, -23086.38, -174195.55, -174073.91, 0.05, 0.03, 1.02
59, -173858.05, -173816.61, -173823.97, -173921.53, -128986.02, -23220.73, -174161.97, -174072.91, 0.06, 0.04, 1.03
60, -173804.52, -173825.02, -173847.50, -173875.22, -129097.55, -23311.13, -174206.41, -174076.70, 0.06, 0.04, 1.03
61, -173666.64, -173821.02, -173843.33, -173681.36, -129106.66, -23284.62, -174239.91, -174051.38, 0.06, 0.04, 1.03
62, -173725.98, -173809.64, -173825.94, -173653.25, -129120.91, -23274.04, -174208.28, -174054.59, 0.06, 0.04, 1.03
63, -173956.00, -173803.41, -173808.09, -173856.88, -129231.55, -23371.50, -174153.36, -174066.02, 0.06, 0.04, 1.03
64, -174077.53, -173814.84, -173826.69, -173862.13, -129351.44, -23472.84, -174182.48, -174055.80, 0.05, 0.03, 1.02
65, -173983.00, -173831.14, -173830.66, -173680.95, -129374.73, -23459.85, -174227.42, -174041.50, 0.05, 0.03, 1.02
66, -173873.63, -173801.95, -173804.81, -173653.77, -129394.42, -23448.81, -174182.20, -174032.59, 0.05, 0.03, 1.02
67, -173840.64, -173777.36, -173781.19, -173850.98, -129518.48, -23557.04, -174122.70, -174046.05, 0.05, 0.03, 1.02
68, -173824.53, -173790.22, -173806.13, -173871.33, -129662.51, -23685.76, -174149.45, -174045.63, 0.05, 0.03, 1.02
69, -173693.86, -173794.44, -173814.11, -173709.53, -129701.91, -23691.37, -174205.06, -174027.56, 0.05, 0.03, 1.02
70, -173625.38, -173778.92, -173799.66, -173596.50, -129698.48, -23657.53, -174188.06, -174015.81, 0.05, 0.03, 1.02
71, -173799.94, -173770.44, -173772.06, -173775.55, -129778.16, -23721.12, -174123.91, -174030.77, 0.05, 0.03, 1.02
72, -174024.81, -173771.47, -173784.41, -173847.25, -129912.72, -23842.29, -174128.52, -174024.89, 0.05, 0.03, 1.02
73, -173990.83, -173793.61, -173800.92, -173705.48, -129968.37, -23865.43, -174181.78, -174009.58, 0.05, 0.03, 1.02
74, -173870.13, -173777.08, -173784.38, -173585.11, -129971.97, -23835.41, -174170.91, -173994.41, 0.05, 0.03, 1.03
75, -173811.36, -173743.95, -173748.11, -173759.30, -130061.17, -23905.95, -174097.95, -173989.97, 0.05, 0.03, 1.03
76, -173802.89, -173746.52, -173761.38, -173843.39, -130215.76, -24047.84, -174094.05, -174014.38, 0.05, 0.03, 1.03
77, -173714.44, -173759.14, -173781.83, -173733.20, -130294.39, -24097.10, -174159.64, -174000.30, 0.05, 0.03, 1.03
78, -173595.48, -173749.73, -173775.53, -173559.66, -130286.34, -24052.69, -174175.19, -173979.05, 0.05, 0.03, 1.03
79, -173716.50, -173732.66, -173745.36, -173671.73, -130329.59, -24075.42, -174102.73, -173982.48, 0.05, 0.03, 1.02
80, -173959.70, -173725.75, -173738.06, -173820.95, -130462.41, -24197.28, -174079.56, -173990.38, 0.05, 0.03, 1.02
81, -173982.08, -173754.09, -173762.19, -173742.67, -130554.99, -24265.03, -174130.09, -173991.38, 0.05, 0.03, 1.02
82, -173867.80, -173756.00, -173758.75, -173562.58, -130560.38, -24234.01, -174154.80, -173961.55, 0.05, 0.03, 1.02
83, -173776.11, -173719.89, -173727.92, -173646.27, -130604.52, -24253.81, -174092.97, -173974.86, 0.05, 0.03, 1.02
84, -173763.55, -173708.66, -173719.83, -173808.13, -130756.02, -24389.44, -174052.56, -173985.61, 0.05, 0.03, 1.02
85, -173720.20, -173719.08, -173743.17, -173762.81, -130876.16, -24487.61, -174100.22, -173972.98, 0.06, 0.03, 1.02
86, -173571.66, -173715.70, -173740.23, -173573.72, -130888.05, -24464.68, -174138.92, -173950.03, 0.06, 0.03, 1.02
87, -173604.42, -173704.16, -173723.70, -173565.41, -130901.02, -24453.21, -174107.09, -173945.47, 0.06, 0.03, 1.02
88, -173831.33, -173697.52, -173702.42, -173761.69, -131009.63, -24551.04, -174045.73, -173950.14, 0.06, 0.03, 1.02
89, -173971.33, -173705.38, -173723.09, -173763.95, -131131.56, -24655.45, -174077.33, -173951.80, 0.06, 0.03, 1.02
90, -173883.09, -173723.55, -173730.84, -173586.80, -131158.95, -24646.11, -174123.30, -173934.56, 0.05, 0.04, 1.03
91, -173771.22, -173697.56, -173703.80, -173546.53, -131174.98, -24632.11, -174080.44, -173930.86, 0.05, 0.04, 1.03
92, -173737.11, -173670.25, -173673.88, -173737.73, -131296.69, -24738.20, -174015.36, -173960.20, 0.05, 0.04, 1.03
93, -173723.61, -173681.47, -173695.05, -173762.56, -131446.56, -24872.55, -174039.22, -173951.13, 0.05, 0.04, 1.03
94, -173599.22, -173690.64, -173709.19, -173607.89, -131492.25, -24884.51, -174100.30, -173924.38, 0.05, 0.04, 1.03
95, -173526.67, -173677.61, -173698.70, -173479.64, -131488.38, -24849.84, -174090.00, -173905.89, 0.05, 0.03, 1.02
96, -173700.58, -173668.06, -173671.28, -173652.13, -131565.30, -24910.04, -174018.92, -173908.45, 0.05, 0.03, 1.02
97, -173912.69, -173665.20, -173681.55, -173741.94, -131699.48, -25030.85, -174024.81, -173931.86, 0.05, 0.03, 1.02
98, -173875.11, -173688.56, -173688.34, -173612.30, -131762.19, -25060.82, -174076.92, -173915.70, 0.05, 0.03, 1.02
99, -173758.00, -173673.47, -173674.45, -173467.13, -131767.58, -25033.01, -174069.77, -173892.98, 0.05, 0.03, 1.02
100, -173696.39, -173637.11, -173646.83, -173626.98, -131852.84, -25098.93, -173998.13, -173894.28, 0.06, 0.03, 1.02
101, -173686.03, -173639.91, -173658.67, -173737.16, -132007.31, -25240.97, -173991.14, -173914.30, 0.06, 0.03, 1.02
102, -173597.55, -173651.72, -173679.42, -173633.23, -132091.81, -25296.61, -174049.83, -173907.42, 0.06, 0.03, 1.02
103, -173483.22, -173638.81, -173675.53, -173467.22, -132086.72, -25253.65, -174067.59, -173877.95, 0.06, 0.03, 1.02
104, -173600.70, -173630.72, -173641.38, -173581.45, -132128.69, -25272.38, -174007.78, -173872.66, 0.06, 0.03, 1.02
105, -173846.44, -173628.02, -173635.28, -173708.66, -132264.09, -25396.83, -173968.14, -173883.25, 0.05, 0.04, 1.01
106, -173879.72, -173642.58, -173652.02, -173635.81, -132363.70, -25472.56, -174021.89, -173890.20, 0.05, 0.04, 1.01
107, -173767.94, -173646.88, -173651.81, -173457.80, -132373.55, -25444.76, -174050.38, -173859.64, 0.05, 0.04, 1.01
108, -173676.11, -173612.61, -173623.27, -173532.97, -132418.13, -25463.67, -173983.53, -173869.61, 0.05, 0.04, 1.01
109, -173660.31, -173600.25, -173612.52, -173704.83, -132565.53, -25597.69, -173945.25, -173882.42, 0.05, 0.04, 1.01
110, -173623.22, -173616.81, -173635.39, -173670.55, -132690.36, -25700.17, -173993.27, -173865.50, 0.05, 0.04, 1.03
111, -173473.56, -173619.00, -173636.56, -173482.09, -132706.19, -25680.07, -174028.91, -173843.97, 0.05, 0.04, 1.03
112, -173487.55, -173602.28, -173615.88, -173447.72, -132717.77, -25665.14, -173990.95, -173836.80, 0.05, 0.04, 1.03
113, -173717.13, -173590.44, -173595.58, -173633.73, -132828.61, -25763.78, -173932.70, -173843.64, 0.05, 0.04, 1.03
114, -173859.86, -173598.38, -173610.59, -173635.30, -132955.75, -25875.54, -173961.14, -173861.25, 0.05, 0.04, 1.03
115, -173778.48, -173615.30, -173611.88, -173465.28, -132991.78, -25875.81, -174010.05, -173823.08, 0.05, 0.04, 1.03
116, -173665.25, -173595.27, -173597.75, -173412.36, -133005.64, -25860.05, -173986.91, -173820.14, 0.06, 0.04, 1.03
117, -173623.89, -173563.95, -173575.42, -173613.84, -133119.72, -25959.56, -173917.52, -173841.52, 0.06, 0.04, 1.03
118, -173608.08, -173576.20, -173592.31, -173659.70, -133270.97, -26095.71, -173936.73, -173830.69, 0.06, 0.04, 1.03
119, -173478.19, -173592.41, -173608.47, -173505.59, -133318.50, -26109.36, -174000.03, -173815.03, 0.06, 0.04, 1.03
120, -173442.89, -173571.92, -173591.55, -173383.39, -133310.05, -26069.06, -173982.22, -173797.92, 0.06, 0.04, 1.03
121, -173629.70, -173562.88, -173563.39, -173554.58, -133386.28, -26126.97, -173913.84, -173806.13, 0.06, 0.04, 1.03
122, -173820.53, -173555.41, -173570.09, -173636.89, -133526.13, -26255.25, -173912.25, -173827.97, 0.06, 0.04, 1.03
123, -173776.16, -173578.30, -173584.17, -173515.30, -133597.28, -26296.98, -173965.16, -173806.25, 0.06, 0.04, 1.03
124, -173659.39, -173575.34, -173576.02, -173364.53, -133603.09, -26270.12, -173972.27, -173784.72, 0.06, 0.04, 1.03
125, -173589.36, -173538.67, -173545.31, -173513.08, -133678.47, -26324.43, -173896.08, -173807.19, 0.06, 0.04, 1.03
126, -173581.63, -173538.14, -173545.59, -173640.33, -133835.33, -26468.44, -173881.19, -173807.58, 0.05, 0.03, 1.03
127, -173500.41, -173545.13, -173574.50, -173548.38, -133926.78, -26531.65, -173944.28, -173787.05, 0.05, 0.03, 1.03
128, -173379.03, -173534.28, -173572.89, -173365.47, -133920.50, -26490.13, -173963.20, -173773.50, 0.05, 0.03, 1.03
129, -173491.13, -173525.42, -173532.09, -173458.84, -133960.19, -26509.19, -173900.95, -173766.84, 0.05, 0.03, 1.03
130, -173734.50, -173520.66, -173528.59, -173600.03, -134094.34, -26633.24, -173869.56, -173781.41, 0.05, 0.03, 1.03
131, -173771.44, -173539.36, -173550.88, -173535.27, -134200.27, -26716.66, -173913.38, -173785.92, 0.05, 0.04, 1.03
132, -173661.98, -173547.56, -173550.14, -173355.59, -134214.53, -26692.94, -173952.47, -173756.00, 0.05, 0.04, 1.03
133, -173567.91, -173510.13, -173518.39, -173420.50, -134257.41, -26707.34, -173884.72, -173754.05, 0.05, 0.04, 1.03
134, -173551.39, -173499.59, -173507.09, -173591.39, -134404.75, -26838.72, -173846.09, -173763.94, 0.05, 0.04, 1.03
135, -173514.58, -173510.38, -173532.48, -173559.64, -134531.88, -26945.36, -173887.05, -173762.80, 0.05, 0.04, 1.03
136, -173363.55, -173506.97, -173535.88, -173374.56, -134549.47, -26925.51, -173931.86, -173741.09, 0.05, 0.04, 1.03
137, -173373.89, -173489.63, -173511.69, -173358.89, -134557.47, -26906.02, -173891.88, -173733.39, 0.05, 0.04, 1.03
138, -173602.42, -173484.47, -173488.53, -173535.50, -134667.84, -27004.10, -173821.23, -173736.58, 0.05, 0.04, 1.03
139, -173755.13, -173494.48, -173507.41, -173533.75, -134798.53, -27120.62, -173858.72, -173749.09, 0.05, 0.04, 1.03
140, -173676.53, -173508.03, -173516.55, -173367.88, -134835.91, -27124.36, -173905.08, -173720.81, 0.05, 0.04, 1.03
141, -173560.55, -173485.63, -173490.91, -173327.17, -134845.98, -27103.84, -173878.33, -173712.77, 0.05, 0.04, 1.03
142, -173519.61, -173458.06, -173464.13, -173521.41, -134958.59, -27201.69, -173807.11, -173729.98, 0.05, 0.04, 1.03
143, -173507.05, -173469.52, -173483.53, -173560.08, -135109.63, -27340.90, -173827.14, -173726.78, 0.05, 0.04, 1.03
144, -173384.67, -173479.14, -173499.36, -173414.03, -135161.55, -27360.14, -173890.94, -173710.42, 0.05, 0.04, 1.03
145, -173318.59, -173462.88, -173487.39, -173274.66, -135155.34, -27322.23, -173879.25, -173695.56, 0.05, 0.04, 1.03
146, -173491.13, -173455.61, -173455.56, -173437.66, -135227.52, -27377.29, -173811.52, -173699.47, 0.05, 0.04, 1.03
147, -173707.67, -173450.36, -173466.45, -173535.56, -135368.55, -27505.43, -173804.86, -173714.98, 0.06, 0.05, 1.02
148, -173679.02, -173479.23, -173479.22, -173421.17, -135442.00, -27549.73, -173865.42, -173707.63, 0.06, 0.05, 1.02
149, -173563.50, -173467.77, -173467.23, -173259.00, -135447.92, -27521.72, -173864.33, -173680.95, 0.06, 0.05, 1.02
150, -173491.34, -173428.23, -173440.95, -173394.25, -135520.03, -27573.92, -173795.38, -173699.33, 0.06, 0.05, 1.02
151, -173483.03, -173428.00, -173444.75, -173528.67, -135676.88, -27720.45, -173778.91, -173698.91, 0.06, 0.05, 1.02
152, -173406.08, -173445.91, -173466.20, -173441.86, -135770.75, -27788.18, -173838.19, -173688.78, 0.06, 0.05, 1.04
153, -173278.52, -173438.27, -173461.53, -173254.47, -135769.91, -27749.22, -173858.75, -173665.45, 0.06, 0.05, 1.04
154, -173379.64, -173424.03, -173437.23, -173326.69, -135804.86, -27760.29, -173807.63, -173671.23, 0.06, 0.05, 1.04
155, -173626.44, -173411.00, -173425.81, -173493.42, -135937.73, -27882.28, -173757.50, -173686.27, 0.06, 0.05, 1.04
156, -173682.30, -173436.28, -173447.67, -173444.59, -136048.89, -27975.76, -173813.00, -173671.13, 0.06, 0.05, 1.04
157, -173572.72, -173443.88, -173447.67, -173260.59, -136060.08, -27953.63, -173850.56, -173654.86, 0.06, 0.04, 1.03
158, -173475.03, -173407.06, -173415.58, -173308.84, -136096.59, -27965.38, -173778.34, -173649.05, 0.06, 0.04, 1.03
159, -173456.30, -173390.56, -173404.92, -173482.50, -136237.95, -28095.94, -173733.94, -173656.59, 0.06, 0.04, 1.03
160, -173419.56, -173408.66, -173430.16, -173456.33, -136363.83, -28206.02, -173784.41, -173675.69, 0.06, 0.04, 1.03
161, -173273.44, -173417.19, -173435.81, -173275.20, -136385.05, -28190.89, -173839.53, -173642.97, 0.06, 0.04, 1.03
162, -173282.25, -173395.47, -173414.38, -173246.95, -136391.17, -28168.27, -173798.02, -173636.30, 0.06, 0.04, 1.03
163, -173510.53, -173383.17, -173386.28, -173431.25, -136500.84, -28263.49, -173727.03, -173635.81, 0.06, 0.04, 1.03
164, -173661.17, -173389.94, -173404.47, -173445.86, -136638.84, -28386.04, -173751.55, -173645.31, 0.06, 0.04, 1.03
165, -173584.06, -173408.77, -173410.42, -173284.84, -136682.25, -28394.92, -173801.03, -173632.23, 0.06, 0.04, 1.03
166, -173469.56, -173394.44, -173395.81, -173207.08, -136694.38, -28376.84, -173780.25, -173617.33, 0.06, 0.04, 1.03
167, -173425.41, -173367.23, -173366.58, -173399.06, -136804.78, -28469.37, -173709.23, -173624.41, 0.05, 0.04, 1.03
168, -173412.84, -173374.67, -173386.91, -173453.64, -136957.38, -28606.54, -173729.58, -173628.95, 0.05, 0.04, 1.03
169, -173306.61, -173380.27, -173398.84, -173318.22, -137019.34, -28635.51, -173773.61, -173609.70, 0.05, 0.04, 1.03
170, -173201.03, -173370.05, -173388.64, -173175.63, -137016.86, -28599.10, -173775.13, -173596.20, 0.05, 0.04, 1.03
171, -173348.25, -173358.88, -173362.50, -173328.88, -137083.44, -28646.53, -173714.48, -173607.42, 0.05, 0.04, 1.03
172, -173593.81, -173347.58, -173360.45, -173432.72, -137225.61, -28775.39, -173694.27, -173626.09, 0.06, 0.04, 1.03
173, -173597.13, -173375.80, -173377.63, -173327.06, -137305.78, -28827.09, -173761.09, -173600.56, 0.06, 0.04, 1.03
174, -173480.28, -173369.17, -173368.30, -173160.23, -137311.48, -28799.44, -173762.55, -173580.94, 0.06, 0.04, 1.03
175, -173405.86, -173331.98, -173337.73, -173289.09, -137380.80, -28848.43, -173690.95, -173579.70, 0.06, 0.04, 1.03
176, -173391.97, -173325.92, -173341.66, -173431.52, -137531.22, -28987.80, -173673.27, -173614.53, 0.06, 0.04, 1.03
177, -173334.11, -173340.86, -173363.20, -173357.23, -137633.00, -29065.74, -173734.72, -173598.22, 0.06, 0.04, 1.03
178, -173181.88, -173336.03, -173361.39, -173170.00, -137638.64, -29035.88, -173761.53, -173571.27, 0.05, 0.03, 1.02
179, -173238.91, -173326.53, -173333.38, -173221.70, -137670.53, -29045.62, -173700.56, -173573.72, 0.05, 0.03, 1.02
180, -173490.95, -173316.27, -173320.69, -173400.05, -137800.36, -29166.66, -173656.00, -173569.11, 0.05, 0.03, 1.02
181, -173579.86, -173335.17, -173348.13, -173358.83, -137911.69, -29257.79, -173708.28, -173573.94, 0.05, 0.03, 1.02
182, -173475.61, -173347.47, -173348.75, -173175.75, -137927.95, -29237.69, -173740.75, -173556.53, 0.05, 0.03, 1.02
183, -173374.03, -173310.33, -173316.47, -173203.69, -137960.89, -29243.37, -173693.52, -173559.75, 0.05, 0.04, 1.02
184, -173351.42, -173291.97, -173297.70, -173382.98, -138098.73, -29366.28, -173646.06, -173584.92, 0.05, 0.04, 1.02
185, -173327.63, -173304.95, -173322.84, -173373.13, -138236.08, -29487.61, -173670.33, -173566.34, 0.05, 0.04, 1.02
186, -173185.47, -173313.61, -173326.23, -173198.08, -138264.11, -29482.49, -173727.56, -173542.83, 0.05, 0.04, 1.02
187, -173174.09, -173297.83, -173310.38, -173126.17, -138270.19, -29460.43, -173699.00, -173531.41, 0.05, 0.04, 1.02
188, -173392.22, -173281.47, -173286.00, -173319.27, -138373.70, -29549.90, -173622.28, -173533.70, 0.06, 0.04, 1.02
189, -173564.31, -173288.13, -173302.39, -173359.70, -138511.45, -29673.10, -173646.09, -173539.05, 0.06, 0.04, 1.02
190, -173493.25, -173313.78, -173320.42, -173201.78, -138555.27, -29684.32, -173701.97, -173527.83, 0.06, 0.04, 1.02
191, -173375.02, -173291.23, -173298.36, -173119.19, -138562.81, -29660.92, -173685.92, -173517.48, 0.06, 0.04, 1.02
192, -173324.88, -173256.69, -173262.83, -173305.14, -138665.02, -29747.13, -173616.70, -173532.05, 0.06, 0.04, 1.02
193, -173317.16, -173267.19, -173279.41, -173364.28, -138822.19, -29892.53, -173622.63, -173531.20, 0.05, 0.04, 1.02
194, -173211.64, -173285.31, -173297.97, -173236.16, -138888.13, -29928.85, -173681.77, -173514.17, 0.05, 0.04, 1.02
195, -173119.58, -173274.97, -173287.39, -173071.78, -138884.95, -29895.41, -173677.66, -173491.38, 0.05, 0.04, 1.02
196, -173269.02, -173256.77, -173264.77, -173203.70, -138947.36, -29940.70, -173624.34, -173511.53, 0.05, 0.04, 1.02
197, -173507.48, -173245.22, -173260.25, -173338.23, -139090.91, -30073.31, -173597.72, -173505.80, 0.05, 0.04, 1.02
198, -173502.86, -173271.41, -173277.94, -173241.30, -139175.03, -30128.65, -173654.52, -173498.44, 0.06, 0.04, 1.02
199, -173386.47, -173269.31, -173271.09, -173070.06, -139180.89, -30098.08, -173666.45, -173481.30, 0.06, 0.04, 1.02
200, -173305.25, -173235.05, -173238.78, -173184.08, -139243.11, -30137.91, -173601.80, -173488.36, 0.06, 0.04, 1.02
201, -173294.98, -173229.23, -173238.89, -173335.30, -139398.48, -30279.88, -173575.69, -173496.52, 0.06, 0.04, 1.02
202, -173244.61, -173242.58, -173265.00, -173268.48, -139505.80, -30363.30, -173630.33, -173484.94, 0.06, 0.04, 1.02
203, -173086.38, -173236.88, -173266.36, -173080.09, -139514.23, -30335.50, -173662.14, -173467.30, 0.05, 0.04, 1.03
204, -173118.08, -173228.00, -173235.77, -173121.98, -139544.50, -30341.24, -173609.72, -173474.55, 0.05, 0.04, 1.03
205, -173363.13, -173215.33, -173218.91, -173289.63, -139671.48, -30456.08, -173557.53, -173485.09, 0.05, 0.04, 1.03
206, -173486.17, -173235.20, -173245.48, -173253.33, -139788.39, -30555.66, -173609.45, -173470.70, 0.05, 0.04, 1.03
207, -173386.30, -173247.36, -173248.77, -173071.14, -139804.55, -30537.94, -173648.97, -173456.06, 0.05, 0.04, 1.03
208, -173281.42, -173217.05, -173221.13, -173090.61, -139832.75, -30539.12, -173592.38, -173450.30, 0.05, 0.04, 1.03
209, -173257.91, -173198.77, -173204.52, -173274.81, -139969.39, -30663.02, -173536.53, -173452.34, 0.05, 0.04, 1.02
210, -173234.86, -173205.34, -173224.30, -173269.48, -140108.02, -30785.64, -173565.98, -173473.61, 0.05, 0.04, 1.02
211, -173097.58, -173208.00, -173236.14, -173100.78, -140143.22, -30788.07, -173626.73, -173441.50, 0.05, 0.04, 1.02
212, -173055.97, -173194.44, -173215.75, -173031.83, -140147.47, -30764.02, -173604.14, -173430.44, 0.05, 0.04, 1.02
213, -173261.27, -173183.45, -173186.05, -173217.88, -140246.03, -30849.25, -173528.09, -173435.69, 0.05, 0.04, 1.02
214, -173453.94, -173192.91, -173204.91, -173253.70, -140384.69, -30975.16, -173552.55, -173445.22, 0.05, 0.04, 1.03
215, -173394.64, -173209.23, -173211.50, -173102.25, -140435.72, -30994.65, -173595.08, -173429.39, 0.05, 0.04, 1.03
216, -173274.97, -173192.89, -173197.78, -173008.64, -140441.70, -30971.67, -173587.47, -173415.22, 0.05, 0.04, 1.03
217, -173222.08, -173163.50, -173164.70, -173192.95, -140538.95, -31052.43, -173517.45, -173433.06, 0.05, 0.04, 1.03
218, -173215.58, -173170.41, -173180.11, -173265.48, -140696.22, -31196.37, -173520.08, -173433.33, 0.05, 0.04, 1.03
219, -173114.03, -173186.52, -173198.95, -173145.08, -140766.94, -31237.03, -173577.16, -173416.50, 0.05, 0.04, 1.03
220, -173023.81, -173176.48, -173189.22, -172980.77, -140765.36, -31202.61, -173580.95, -173391.58, 0.05, 0.04, 1.03
221, -173176.84, -173156.41, -173162.17, -173110.03, -140825.91, -31246.42, -173518.31, -173395.58, 0.05, 0.04, 1.03
222, -173403.20, -173147.53, -173160.91, -173234.34, -140966.53, -31376.46, -173497.83, -173426.00, 0.05, 0.04, 1.03
223, -173393.03, -173170.83, -173181.31, -173143.56, -141056.63, -31438.38, -173556.50, -173411.78, 0.05, 0.04, 1.03
224, -173276.27, -173170.38, -173173.47, -172967.72, -141062.23, -31408.09, -173574.14, -173385.77, 0.05, 0.03, 1.02
225, -173193.78, -173140.78, -173148.39, -173070.77, -141122.06, -31444.70, -173504.73, -173394.30, 0.05, 0.03, 1.02
226, -173183.91, -173134.06, -173142.95, -173230.19, -141277.58, -31588.40, -173479.38, -173396.58, 0.05, 0.03, 1.02
227, -173136.97, -173140.39, -173164.53, -173173.80, -141389.11, -31679.08, -173522.39, -173390.81, 0.05, 0.03, 1.02
228, -172986.78, -173137.77, -173162.89, -172985.73, -141403.30, -31658.32, -173553.05, -173370.27, 0.05, 0.03, 1.02
229, -173023.63, -173127.59, -173141.33, -172999.08, -141428.73, -31660.17, -173512.88, -173373.80, 0.05, 0.03, 1.02
230, -173265.58, -173110.33, -173119.63, -173184.75, -141551.38, -31771.60, -173451.31, -173391.59, 0.05, 0.03, 1.02
231, -173391.91, -173128.14, -173143.67, -173166.64, -141675.05, -31876.83, -173499.86, -173373.25, 0.05, 0.03, 1.02
232, -173295.50, -173142.75, -173142.84, -172985.00, -141695.81, -31864.56, -173543.86, -173356.38, 0.05, 0.03, 1.02
233, -173192.13, -173109.94, -173116.78, -172966.00, -141722.92, -31866.52, -173488.02, -173345.48, 0.05, 0.03, 1.02
234, -173163.98, -173086.25, -173098.42, -173173.83, -141854.45, -31986.13, -173439.06, -173351.89, 0.05, 0.04, 1.03
235, -173143.56, -173104.42, -173121.11, -173193.56, -141993.98, -32111.25, -173471.17, -173366.36, 0.05, 0.04, 1.03
236, -173012.08, -173113.14, -173136.30, -173028.95, -142032.25, -32116.19, -173526.33, -173348.36, 0.05, 0.04, 1.03
237, -172947.52, -173097.53, -173119.53, -172938.70, -142034.89, -32089.44, -173507.59, -173336.05, 0.05, 0.04, 1.03
238, -173137.08, -173087.75, -173087.20, -173118.97, -142128.02, -32167.49, -173430.06, -173345.33, 0.05, 0.04, 1.03
239, -173351.92, -173086.22, -173097.73, -173169.95, -142268.98, -32296.86, -173443.47, -173337.27, 0.05, 0.04, 1.03
240, -173303.97, -173111.81, -173113.63, -173025.34, -142320.45, -32318.70, -173499.58, -173326.70, 0.05, 0.03, 1.02
241, -173187.08, -173094.67, -173096.22, -172904.97, -142326.77, -32294.89, -173485.09, -173314.75, 0.05, 0.03, 1.02
242, -173134.28, -173066.36, -173066.09, -173079.25, -142422.88, -32374.44, -173415.47, -173314.38, 0.05, 0.03, 1.02
243, -173125.55, -173070.11, -173081.69, -173162.06, -142578.23, -32520.54, -173413.50, -173342.44, 0.05, 0.03, 1.02
244, -173039.33, -173077.28, -173098.36, -173052.20, -142658.39, -32574.11, -173477.63, -173322.02, 0.05, 0.03, 1.02
245, -172917.20, -173070.80, -173089.36, -172880.48, -142657.70, -32540.99, -173490.02, -173297.92, 0.06, 0.04, 1.02
246, -173041.23, -173052.27, -173061.95, -172994.58, -142712.86, -32577.64, -173418.16, -173309.66, 0.06, 0.04, 1.02
247, -173288.39, -173046.78, -173059.81, -173135.52, -142854.78, -32709.74, -173392.36, -173308.58, 0.06, 0.04, 1.02
248, -173303.48, -173072.55, -173080.61, -173049.81, -142944.86, -32775.23, -173456.14, -173305.63, 0.06, 0.04, 1.02
249, -173189.17, -173067.22, -173073.23, -172876.14, -142952.14, -32747.29, -173466.86, -173282.19, 0.06, 0.04, 1.02
250, -173104.02, -173033.77, -173042.86, -172971.03, -143005.94, -32778.83, -173412.56, -173293.77, 0.05, 0.03, 1.02
251, -173093.73, -173027.13, -173035.59, -173126.08, -143159.70, -32920.32, -173379.09, -173311.36, 0.05, 0.03, 1.02
252, -173057.42, -173041.41, -173062.16, -173080.22, -143281.47, -33021.26, -173420.23, -173286.09, 0.05, 0.03, 1.02
253, -172903.81, -173040.42, -173066.28, -172893.36, -143295.94, -33000.88, -173465.00, -173268.75, 0.05, 0.03, 1.02
254, -172918.14, -173027.53, -173040.92, -172901.98, -143317.95, -32999.31, -173415.16, -173271.36, 0.05, 0.03, 1.02
255, -173158.27, -173011.69, -173019.86, -173088.28, -143442.16, -33110.18, -173350.27, -173275.48, 0.05, 0.04, 1.02
0, -173284.95, -173028.80, -173041.48, -173073.84, -143568.72, -33217.06, -173399.48, -173269.63, 0.05, 0.04, 1.02
1, -173191.50, -173047.28, -173046.73, -172895.67, -143594.91, -33208.12, -173443.52, -173254.09, 0.05, 0.04, 1.02
2, -173084.17, -173017.52, -173020.94, -172870.69, -143616.86, -33204.39, -173400.78, -173251.31, 0.05, 0.04, 1.02
3, -173053.77, -172995.02, -172999.81, -173068.75, -143744.11, -33318.98, -173344.30, -173272.89, 0.05, 0.04, 1.02
4, -173040.41, -173007.95, -173019.73, -173093.72, -143892.69, -33455.24, -173365.88, -173262.73, 0.06, 0.04, 1.03
5, -172911.59, -173017.19, -173036.06, -172937.28, -143936.73, -33466.24, -173421.44, -173239.45, 0.06, 0.04, 1.03
6, -172863.38, -173003.64, -173018.61, -172820.33, -143939.16, -33439.10, -173403.70, -173227.73, 0.06, 0.04, 1.03
7, -173057.80, -172984.50, -172988.55, -172995.09, -144028.42, -33514.41, -173328.66, -173235.09, 0.06, 0.04, 1.03
8, -173256.81, -172985.75, -172999.17, -173063.22, -144169.84, -33642.91, -173342.38, -173246.80, 0.06, 0.04, 1.03
9, -173207.06, -173009.02, -173016.27, -172927.47, -144229.88, -33672.57, -173395.80, -173230.06, 0.05, 0.04, 1.02
10, -173090.45, -172995.92, -173001.61, -172801.64, -144238.17, -33648.63, -173387.84, -173215.22, 0.05, 0.04, 1.02
11, -173032.38, -172961.22, -172966.69, -172971.31, -144330.48, -33720.64, -173318.70, -173238.06, 0.05, 0.04, 1.02
12, -173029.27, -172968.83, -172974.02, -173066.58, -144492.25, -33870.58, -173314.45, -173248.48, 0.05, 0.04, 1.02
13, -172954.27, -172981.75, -172997.48, -172964.98, -144578.88, -33927.76, -173374.55, -173222.30, 0.05, 0.04, 1.02
14, -172814.97, -172979.67, -172991.03, -172783.73, -144581.56, -33895.88, -173391.06, -173203.08, 0.05, 0.04, 1.02
15, -172918.77, -172957.55, -172962.39, -172878.88, -144634.48, -33927.96, -173318.75, -173207.91, 0.05, 0.04, 1.02
16, -173168.06, -172948.66, -172957.53, -173032.69, -144775.19, -34056.52, -173292.31, -173203.38, 0.05, 0.04, 1.02
17, -173198.25, -172974.16, -172982.78, -172958.50, -144872.61, -34128.59, -173348.25, -173204.59, 0.05, 0.04, 1.02
18, -173086.53, -172976.95, -172980.38, -172780.39, -144883.09, -34104.02, -173373.53, -173187.23, 0.05, 0.04, 1.02
19, -172998.19, -172937.72, -172942.66, -172862.69, -144935.44, -34132.36, -173315.63, -173198.55, 0.05, 0.04, 1.02
20, -172986.92, -172928.75, -172934.23, -173033.50, -145089.45, -34275.48, -173281.17, -173215.31, 0.04, 0.04, 1.03
21, -172949.92, -172941.75, -172963.31, -172995.50, -145212.58, -34381.23, -173317.55, -173188.81, 0.04, 0.04, 1.03
22, -172800.06, -172943.39, -172972.23, -172808.39, -145225.94, -34360.91, -173368.73, -173173.73, 0.04, 0.04, 1.03
23, -172822.50, -172930.55, -172946.58, -172796.09, -145244.58, -34352.30, -173323.22, -173177.52, 0.04, 0.04, 1.03
24, -173056.05, -172921.50, -172925.47, -172978.11, -145362.38, -34457.09, -173261.64, -173181.52, 0.04, 0.04, 1.03
25, -173194.14, -172927.08, -172939.48, -172974.36, -145492.50, -34572.05, -173291.77, -173168.09, 0.05, 0.03, 1.03
26, -173108.27, -172944.81, -172940.16, -172801.53, -145525.92, -34569.74, -173341.13, -173153.33, 0.05, 0.03, 1.03
27, -173000.39, -172921.20, -172921.36, -172757.50, -145547.80, -34561.94, -173305.73, -173155.36, 0.05, 0.03, 1.03
28, -172969.66, -172900.61, -172902.52, -172956.88, -145674.94, -34674.80, -173243.50, -173156.81, 0.05, 0.03, 1.03
29, -172956.09, -172909.47, -172923.34, -172986.56, -145824.77, -34808.93, -173266.33, -173158.94, 0.05, 0.03, 1.03
30, -172840.31, -172910.86, -172931.39, -172834.83, -145875.80, -34825.45, -173315.33, -173144.30, 0.05, 0.04, 1.02
31, -172741.98, -172900.80, -172917.56, -172716.91, -145878.97, -34797.75, -173309.88, -173133.75, 0.05, 0.04, 1.02
32, -172907.95, -172884.59, -172890.33, -172887.25, -145962.63, -34865.70, -173230.73, -173149.73, 0.05, 0.04, 1.02
33, -173137.33, -172883.50, -172899.95, -172964.70, -146105.48, -34997.29, -173234.22, -173150.13, 0.05, 0.04, 1.02
34, -173109.47, -172910.78, -172916.94, -172834.09, -146170.41, -35029.94, -173306.77, -173136.94, 0.05, 0.04, 1.02
35, -172991.95, -172901.80, -172906.77, -172704.64, -146177.25, -35000.98, -173298.66, -173119.59, 0.06, 0.04, 1.03
36, -172932.05, -172864.52, -172868.23, -172870.31, -146263.91, -35071.76, -173218.77, -173144.23, 0.06, 0.04, 1.03
37, -172928.42, -172870.27, -172875.69, -172966.98, -146425.92, -35224.16, -173215.08, -173149.22, 0.06, 0.04, 1.03
38, -172861.66, -172877.53, -172898.63, -172870.44, -146516.22, -35288.26, -173269.16, -173124.80, 0.06, 0.04, 1.03
39, -172711.23, -172873.14, -172894.73, -172695.42, -146519.23, -35256.10, -173290.30, -173098.56, 0.06, 0.04, 1.03
40, -172783.81, -172867.95, -172872.83, -172792.36, -146565.28, -35278.47, -173239.63, -173101.33, 0.06, 0.04, 1.03
41, -173031.69, -172853.25, -172862.33, -172944.88, -146698.20, -35398.55, -173196.67, -173133.03, 0.06, 0.05, 1.03
42, -173122.02, -172872.23, -172882.06, -172881.27, -146802.34, -35479.35, -173248.16, -173115.91, 0.06, 0.05, 1.03
43, -173016.67, -172879.11, -172877.84, -172699.45, -146818.92, -35458.98, -173278.36, -173086.98, 0.06, 0.05, 1.03
44, -172931.73, -172839.59, -172846.75, -172762.30, -146872.45, -35488.29, -173207.08, -173083.47, 0.06, 0.05, 1.03
45, -172920.44, -172831.23, -172836.84, -172930.39, -147023.31, -35627.47, -173172.23, -173095.50, 0.06, 0.05, 1.03
46, -172889.19, -172846.39, -172864.23, -172894.16, -147148.33, -35733.42, -173219.08, -173108.16, 0.06, 0.04, 1.02
47, -172745.98, -172852.16, -172864.36, -172712.61, -147172.95, -35723.79, -173260.45, -173077.06, 0.06, 0.04, 1.02
48, -172693.06, -172837.81, -172844.30, -172663.22, -147192.52, -35716.97, -173223.47, -173070.13, 0.06, 0.04, 1.02
49, -172904.17, -172818.70, -172823.84, -172859.42, -147304.78, -35817.75, -173165.22, -173073.95, 0.06, 0.04, 1.02
50, -173087.91, -172829.14, -172844.09, -172875.22, -147431.75, -35929.33, -173195.41, -173085.02, 0.06, 0.04, 1.02
51, -173018.59, -172845.45, -172850.03, -172707.94, -147467.59, -35931.16, -173242.13, -173060.81, 0.06, 0.04, 1.02
52, -172909.45, -172817.78, -172825.56, -172676.63, -147487.27, -35923.92, -173204.59, -173052.20, 0.06, 0.04, 1.02
53, -172876.97, -172789.66, -172801.13, -172862.44, -147611.23, -36034.12, -173142.16, -173064.44, 0.06, 0.04, 1.02
54, -172867.20, -172806.25, -172822.39, -172888.41, -147763.63, -36174.44, -173165.47, -173061.86, 0.06, 0.04, 1.02
55, -172764.27, -172813.09, -172833.56, -172743.23, -147817.52, -36196.73, -173217.61, -173048.66, 0.06, 0.04, 1.02
56, -172637.73, -172802.81, -172821.33, -172618.36, -147820.22, -36167.65, -173213.09, -173032.72, 0.06, 0.04, 1.03
57, -172777.44, -172793.27, -172791.92, -172785.48, -147898.84, -36227.57, -173142.23, -173052.81, 0.06, 0.04, 1.03
58, -173022.25, -172783.61, -172799.28, -172875.73, -148042.53, -36358.60, -173134.34, -173058.75, 0.06, 0.04, 1.03
59, -173020.91, -172807.34, -172812.78, -172759.58, -148114.14, -36401.47, -173194.66, -173035.64, 0.06, 0.04, 1.03
60, -172908.58, -172801.84, -172802.27, -172598.88, -148125.39, -36378.13, -173198.28, -173020.13, 0.06, 0.04, 1.03
61, -172844.47, -172766.22, -172778.47, -172736.72, -148208.16, -36439.91, -173124.36, -173025.00, 0.05, 0.04, 1.02
62, -172837.78, -172769.59, -172782.23, -172871.11, -148365.64, -36586.09, -173116.56, -173027.11, 0.05, 0.04, 1.02
63, -172775.16, -172782.23, -172804.55, -172783.61, -148456.48, -36651.47, -173167.58, -173029.63, 0.05, 0.04, 1.02
64, -172620.81, -172776.31, -172799.45, -172601.34, -148459.81, -36622.39, -173191.19, -173004.22, 0.05, 0.04, 1.02
65, -172682.58, -172761.70, -172766.75, -172676.03, -148502.69, -36646.33, -173136.36, -173013.53, 0.05, 0.04, 1.02
66, -172935.59, -172748.05, -172763.38, -172844.06, -148638.47, -36773.18, -173091.39, -173022.20, 0.05, 0.04, 1.02
67, -173015.44, -172774.58, -172787.77, -172789.94, -148747.25, -36859.52, -173153.30, -173006.77, 0.05, 0.04, 1.02
68, -172912.27, -172779.78, -172783.88, -172610.25, -148764.78, -36842.40, -173170.38, -172990.03, 0.05, 0.04, 1.02
69, -172821.47, -172746.09, -172754.02, -172659.13, -148810.52, -36865.36, -173118.14, -172991.36, 0.05, 0.04, 1.02
70, -172806.69, -172736.28, -172741.70, -172829.36, -148959.17, -37002.46, -173077.00, -172998.58, 0.05, 0.04, 1.02
71, -172779.14, -172749.50, -172765.66, -172802.09, -149089.22, -37113.66, -173124.22, -172992.89, 0.05, 0.04, 1.02
72, -172633.45, -172750.28, -172765.70, -172621.58, -149112.97, -37103.09, -173163.56, -172975.11, 0.05, 0.04, 1.02
73, -172591.16, -172735.48, -172746.88, -172582.03, -149126.19, -37093.03, -173128.58, -172973.47, 0.05, 0.04, 1.02
74, -172800.48, -172721.41, -172727.72, -172764.06, -149235.16, -37190.64, -173067.55, -172982.61, 0.05, 0.04, 1.02
75, -172999.75, -172728.95, -172741.45, -172771.83, -149364.56, -37307.43, -173091.41, -173001.09, 0.05, 0.04, 1.02
76, -172942.44, -172751.98, -172752.14, -172610.80, -149404.84, -37316.88, -173144.14, -172965.19, 0.05, 0.04, 1.02
77, -172831.03, -172728.86, -172733.84, -172566.59, -149419.80, -37302.47, -173116.20, -172953.14, 0.05, 0.04, 1.02
78, -172791.25, -172701.23, -172706.47, -172759.05, -149535.88, -37403.12, -173049.59, -172973.17, 0.05, 0.04, 1.02
79, -172782.53, -172714.47, -172723.09, -172800.59, -149689.83, -37545.50, -173069.53, -172966.52, 0.05, 0.04, 1.02
80, -172692.23, -172722.14, -172736.72, -172663.48, -149747.11, -37572.14, -173124.25, -172954.69, 0.05, 0.04, 1.02
81, -172543.38, -172707.67, -172722.08, -172520.86, -149754.27, -37548.79, -173111.78, -172937.08, 0.05, 0.04, 1.02
82, -172645.03, -172695.03, -172699.78, -172671.42, -149828.83, -37607.64, -173048.58, -172949.56, 0.05, 0.04, 1.03
83, -172900.38, -172686.89, -172702.72, -172766.70, -149967.66, -37738.15, -173039.69, -172964.05, 0.05, 0.04, 1.03
84, -172939.86, -172712.02, -172716.80, -172655.70, -150045.42, -37788.71, -173100.38, -172941.08, 0.05, 0.04, 1.03
85, -172827.73, -172705.69, -172708.39, -172500.25, -150054.55, -37764.32, -173100.91, -172923.44, 0.05, 0.04, 1.03
86, -172760.45, -172664.63, -172672.14, -172641.31, -150132.33, -37823.55, -173028.17, -172921.72, 0.05, 0.04, 1.03
87, -172752.31, -172668.58, -172683.84, -172768.30, -150287.80, -37970.65, -173020.72, -172932.56, 0.06, 0.03, 1.03
88, -172698.56, -172682.36, -172699.72, -172685.58, -150384.00, -38042.60, -173065.22, -172933.70, 0.06, 0.03, 1.03
89, -172539.92, -172675.98, -172696.41, -172504.77, -150396.05, -38017.57, -173095.45, -172903.45, 0.06, 0.03, 1.03
90, -172551.50, -172668.83, -172675.02, -172570.14, -150434.66, -38035.05, -173043.53, -172913.47, 0.06, 0.03, 1.03
91, -172797.06, -172655.23, -172662.61, -172735.03, -150565.80, -38156.64, -172994.97, -172926.83, 0.06, 0.03, 1.03
92, -172923.33, -172673.45, -172684.23, -172687.56, -150678.11, -38248.55, -173054.64, -172917.47, 0.06, 0.03, 1.03
93, -172828.63, -172675.67, -172675.73, -172506.27, -150699.44, -38233.77, -173077.75, -172894.45, 0.06, 0.03, 1.03
94, -172733.88, -172648.42, -172651.89, -172532.69, -150741.19, -38249.15, -173021.92, -172893.73, 0.06, 0.03, 1.03
95, -172713.02, -172633.02, -172640.05, -172722.34, -150883.45, -38377.83, -172978.72, -172913.67, 0.06, 0.03, 1.03
96, -172688.70, -172649.67, -172665.47, -172711.13, -151015.98, -38493.39, -173018.34, -172897.23, 0.06, 0.03, 1.03
97, -172553.38, -172653.66, -172665.14, -172538.30, -151048.19, -38491.00, -173064.23, -172875.22, 0.06, 0.03, 1.03
98, -172491.63, -172642.03, -172652.09, -172458.95, -151063.19, -38480.07, -173035.20, -172872.08, 0.06, 0.03, 1.03
99, -172690.78, -172623.13, -172627.03, -172647.11, -151168.11, -38572.00, -172965.91, -172889.27, 0.06, 0.03, 1.03
100, -172894.58, -172632.55, -172645.66, -172683.94, -151305.13, -38695.65, -172997.52, -172880.02, 0.06, 0.03, 1.03
101, -172838.77, -172648.06, -172652.42, -172526.58, -151351.55, -38708.44, -173046.17, -172865.41, 0.06, 0.03, 1.03
102, -172726.86, -172629.16, -172635.22, -172458.61, -151369.05, -38693.66, -173015.61, -172856.38, 0.06, 0.03, 1.03
103, -172682.59, -172594.84, -172609.83, -172650.83, -151479.13, -38788.25, -172952.66, -172874.73, 0.06, 0.03, 1.02
104, -172670.59, -172607.47, -172623.61, -172700.80, -151630.86, -38929.27, -172964.55, -172886.11, 0.06, 0.03, 1.02
105, -172583.67, -172626.20, -172637.33, -172572.38, -151697.48, -38964.27, -173026.02, -172858.97, 0.06, 0.03, 1.02
106, -172444.19, -172618.31, -172626.50, -172417.11, -151704.17, -38939.57, -173019.97, -172842.84, 0.06, 0.03, 1.02
107, -172558.67, -172598.80, -172600.81, -172558.20, -151776.19, -38994.36, -172948.50, -172850.70, 0.06, 0.03, 1.02
108, -172813.13, -172592.31, -172608.95, -172677.66, -151918.36, -39125.23, -172946.14, -172848.69, 0.05, 0.03, 1.03
109, -172838.86, -172619.34, -172622.19, -172573.31, -151997.16, -39176.57, -173003.75, -172849.63, 0.05, 0.03, 1.03
110, -172727.13, -172611.47, -172614.45, -172412.00, -152007.81, -39152.57, -173006.39, -172830.36, 0.05, 0.03, 1.03
111, -172654.05, -172575.63, -172582.34, -172537.61, -152079.47, -39202.99, -172937.34, -172845.45, 0.05, 0.03, 1.03
112, -172644.13, -172575.38, -172581.81, -172669.95, -152236.42, -39347.88, -172917.72, -172845.47, 0.05, 0.03, 1.03
113, -172597.19, -172585.02, -172603.61, -172598.69, -152341.81, -39428.57, -172968.56, -172826.14, 0.05, 0.04, 1.03
114, -172442.36, -172583.53, -172604.55, -172414.17, -152354.61, -39404.85, -173001.95, -172807.95, 0.05, 0.04, 1.03
115, -172456.38, -172569.92, -172578.53, -172461.27, -152394.23, -39419.82, -172939.94, -172809.20, 0.05, 0.04, 1.03
116, -172701.03, -172555.66, -172568.81, -172630.47, -152523.31, -39538.31, -172901.98, -172818.47, 0.05, 0.04, 1.03
117, -172824.94, -172578.59, -172588.70, -172586.11, -152632.95, -39628.97, -172951.00, -172829.97, 0.05, 0.04, 1.03
118, -172731.69, -172586.89, -172590.67, -172410.83, -152654.34, -39614.75, -172982.83, -172799.19, 0.05, 0.04, 1.02
119, -172632.94, -172554.95, -172563.31, -172450.19, -152689.98, -39622.69, -172936.25, -172798.84, 0.05, 0.04, 1.02
120, -172610.48, -172535.25, -172545.09, -172629.98, -152828.27, -39749.69, -172881.38, -172807.48, 0.05, 0.04, 1.02
121, -172587.73, -172549.92, -172566.22, -172618.77, -152963.17, -39867.60, -172917.61, -172804.28, 0.05, 0.04, 1.02
122, -172455.84, -172554.39, -172572.67, -172451.06, -152997.22, -39867.11, -172964.70, -172784.28, 0.05, 0.04, 1.02
123, -172393.34, -172544.27, -172554.45, -172370.95, -153010.73, -39852.53, -172935.69, -172777.17, 0.05, 0.04, 1.03
124, -172592.34, -172526.00, -172531.92, -172553.88, -153112.94, -39942.03, -172874.88, -172790.09, 0.05, 0.04, 1.03
125, -172794.47, -172532.47, -172546.55, -172586.98, -153249.02, -40064.47, -172890.56, -172798.06, 0.05, 0.04, 1.03
126, -172743.03, -172550.98, -172555.80, -172435.77, -153300.91, -40082.67, -172946.75, -172773.48, 0.05, 0.04, 1.03
127, -172632.39, -172536.84, -172542.44, -172349.95, -153315.02, -40065.52, -172928.25, -172755.80, 0.05, 0.04, 1.03
128, -172582.00, -172507.42, -172511.89, -172539.84, -153416.83, -40150.97, -172858.89, -172777.38, 0.05, 0.04, 1.03
129, -172571.64, -172514.61, -172526.88, -172610.47, -153571.08, -40291.81, -172869.14, -172771.77, 0.05, 0.04, 1.03
130, -172489.69, -172522.36, -172543.23, -172487.75, -153641.81, -40331.29, -172925.36, -172762.19, 0.05, 0.04, 1.03
131, -172347.08, -172515.16, -172532.50, -172329.64, -153651.08, -40307.39, -172923.06, -172744.89, 0.05, 0.04, 1.03
132, -172450.97, -172504.77, -172508.41, -172461.30, -153718.81, -40357.21, -172859.75, -172750.56, 0.05, 0.04, 1.03
133, -172703.97, -172491.20, -172508.41, -172574.92, -153854.81, -40481.38, -172842.33, -172775.00, 0.05, 0.04, 1.03
134, -172751.06, -172512.80, -172523.13, -172481.50, -153943.66, -40542.62, -172890.89, -172739.34, 0.06, 0.03, 1.02
135, -172640.67, -172518.09, -172519.72, -172314.94, -153952.58, -40516.98, -172916.67, -172726.66, 0.06, 0.03, 1.02
136, -172561.98, -172482.92, -172488.89, -172429.05, -154014.63, -40558.25, -172847.53, -172739.03, 0.06, 0.03, 1.02
137, -172550.91, -172477.50, -172483.36, -172573.39, -154165.14, -40699.53, -172819.64, -172744.11, 0.06, 0.03, 1.02
138, -172506.17, -172487.56, -172503.77, -172511.00, -154271.83, -40783.35, -172868.08, -172726.14, 0.06, 0.03, 1.02
139, -172354.52, -172492.77, -172504.64, -172327.41, -154287.11, -40761.18, -172898.16, -172710.00, 0.06, 0.03, 1.02
140, -172374.20, -172475.59, -172481.13, -172354.11, -154323.84, -40771.97, -172848.78, -172702.84, 0.06, 0.03, 1.02
141, -172611.39, -172461.20, -172471.94, -172527.61, -154443.19, -40879.37, -172813.00, -172732.00, 0.06, 0.03, 1.02
142, -172738.95, -172475.48, -172487.56, -172495.05, -154558.73, -40973.72, -172849.97, -172725.02, 0.06, 0.03, 1.02
143, -172648.59, -172487.28, -172491.80, -172321.53, -154584.39, -40962.59, -172886.80, -172703.75, 0.06, 0.03, 1.02
144, -172548.06, -172452.98, -172462.67, -172346.78, -154615.97, -40968.45, -172829.20, -172700.19, 0.06, 0.03, 1.02
145, -172524.70, -172431.44, -172445.41, -172524.28, -154751.06, -41091.09, -172782.53, -172699.16, 0.06, 0.03, 1.02
146, -172499.50, -172452.91, -172471.44, -172511.89, -154881.31, -41205.68, -172826.13, -172717.36, 0.06, 0.03, 1.02
147, -172383.28, -172458.59, -172472.92, -172351.09, -154924.25, -41210.40, -172866.83, -172694.53, 0.06, 0.03, 1.02
148, -172286.53, -172447.45, -172457.50, -172267.84, -154942.38, -41197.68, -172836.95, -172676.83, 0.06, 0.03, 1.02
149, -172461.14, -172426.36, -172436.11, -172455.03, -155036.36, -41278.44, -172777.80, -172677.81, 0.06, 0.04, 1.02
150, -172679.42, -172435.30, -172447.38, -172499.17, -155163.44, -41390.94, -172797.03, -172701.63, 0.06, 0.04, 1.02
151, -172647.27, -172456.72, -172462.50, -172356.95, -155219.09, -41411.99, -172849.83, -172676.55, 0.06, 0.04, 1.02
152, -172535.50, -172441.13, -172448.19, -172258.88, -155231.94, -41391.94, -172835.23, -172662.06, 0.06, 0.04, 1.02
153, -172483.38, -172406.11, -172415.70, -172439.70, -155328.88, -41470.17, -172767.20, -172686.47, 0.06, 0.04, 1.02
154, -172471.00, -172412.77, -172430.41, -172508.14, -155478.08, -41608.20, -172771.41, -172680.47, 0.05, 0.04, 1.02
155, -172393.03, -172428.25, -172443.95, -172393.45, -155552.52, -41652.03, -172822.47, -172670.27, 0.05, 0.04, 1.02
156, -172258.16, -172424.33, -172433.33, -172235.72, -155565.59, -41631.55, -172824.28, -172644.06, 0.05, 0.04, 1.02
157, -172358.98, -172406.69, -172410.98, -172355.50, -155625.95, -41673.95, -172766.84, -172651.03, 0.05, 0.04, 1.02
158, -172607.03, -172396.97, -172412.28, -172473.59, -155756.22, -41793.20, -172752.84, -172657.36, 0.05, 0.04, 1.02
159, -172645.22, -172418.16, -172425.19, -172380.38, -155841.70, -41852.16, -172795.16, -172659.44, 0.06, 0.03, 1.02
160, -172538.89, -172420.45, -172421.44, -172226.75, -155855.47, -41828.20, -172818.36, -172629.77, 0.06, 0.03, 1.02
161, -172459.53, -172379.06, -172387.28, -172345.69, -155916.98, -41863.83, -172749.05, -172646.97, 0.06, 0.03, 1.02
162, -172445.31, -172372.63, -172388.14, -172463.69, -156064.59, -41996.76, -172720.78, -172657.81, 0.06, 0.03, 1.02
163, -172404.47, -172387.06, -172407.84, -172401.70, -156173.27, -42081.63, -172771.00, -172639.53, 0.06, 0.03, 1.02
164, -172261.78, -172386.64, -172406.73, -172229.11, -156198.17, -42069.07, -172801.02, -172621.78, 0.06, 0.03, 1.02
165, -172256.06, -172381.98, -172389.70, -172255.59, -156226.89, -42073.07, -172761.64, -172620.13, 0.05, 0.03, 1.03
166, -172481.34, -172363.38, -172376.22, -172425.73, -156336.30, -42172.35, -172711.23, -172634.75, 0.05, 0.03, 1.03
167, -172627.56, -172379.13, -172391.00, -172394.69, -156445.42, -42263.10, -172751.13, -172632.83, 0.05, 0.03, 1.03
168, -172551.70, -172386.69, -172393.75, -172229.95, -156479.94, -42259.66, -172782.02, -172608.05, 0.05, 0.03, 1.03
169, -172454.92, -172363.66, -172372.42, -172240.30, -156511.25, -42262.07, -172746.50, -172603.23, 0.05, 0.03, 1.03
170, -172420.59, -172336.91, -172354.16, -172422.11, -156630.25, -42366.59, -172692.70, -172622.05, 0.05, 0.03, 1.03
171, -172395.56, -172347.61, -172369.73, -172420.70, -156759.28, -42481.93, -172712.55, -172612.28, 0.05, 0.03, 1.03
172, -172297.77, -172355.50, -172373.11, -172275.08, -156812.14, -42501.04, -172759.47, -172595.41, 0.05, 0.03, 1.03
173, -172188.20, -172357.25, -172364.16, -172173.63, -156830.97, -42489.14, -172748.72, -172583.48, 0.05, 0.03, 1.03
174, -172332.66, -172343.14, -172345.42, -172345.11, -156911.44, -42551.75, -172699.34, -172589.88, 0.05, 0.03, 1.03
175, -172560.13, -172343.09, -172356.59, -172392.22, -157024.73, -42651.17, -172704.88, -172598.67, 0.05, 0.03, 1.02
176, -172559.97, -172357.06, -172360.38, -172259.69, -157086.42, -42680.63, -172738.28, -172582.94, 0.05, 0.03, 1.02
177, -172460.80, -172342.81, -172347.13, -172171.88, -157109.33, -42669.23, -172730.30, -172563.44, 0.05, 0.03, 1.02
178, -172401.81, -172312.52, -172320.52, -172341.91, -157195.48, -42735.28, -172667.05, -172585.95, 0.05, 0.03, 1.02
179, -172377.05, -172313.34, -172333.23, -172397.02, -157329.09, -42857.73, -172672.47, -172584.00, 0.05, 0.03, 1.02
180, -172315.56, -172325.64, -172340.50, -172294.48, -157411.47, -42910.18, -172716.66, -172572.14, 0.05, 0.04, 1.02
181, -172175.95, -172325.03, -172334.47, -172143.25, -157438.11, -42899.46, -172723.45, -172553.34, 0.05, 0.04, 1.02
182, -172222.00, -172319.78, -172318.67, -172245.98, -157489.17, -42929.32, -172681.61, -172557.39, 0.05, 0.04, 1.02
183, -172448.70, -172312.86, -172322.58, -172353.33, -157590.48, -43020.40, -172672.45, -172569.03, 0.05, 0.04, 1.02
184, -172558.72, -172315.19, -172320.67, -172269.38, -157675.86, -43076.93, -172688.30, -172557.34, 0.05, 0.04, 1.02
185, -172481.91, -172315.34, -172315.88, -172119.64, -157713.14, -43072.64, -172705.53, -172537.67, 0.05, 0.04, 1.02
186, -172402.28, -172291.75, -172296.92, -172210.70, -157768.86, -43101.70, -172659.13, -172544.44, 0.05, 0.04, 1.02
187, -172367.30, -172280.78, -172297.45, -172349.63, -157889.95, -43210.41, -172637.81, -172545.48, 0.05, 0.04, 1.02
188, -172325.73, -172289.75, -172303.94, -172292.73, -157992.50, -43289.74, -172660.48, -172549.06, 0.05, 0.04, 1.02
189, -172227.31, -172284.20, -172300.50, -172142.16, -158041.27, -43300.31, -172684.78, -172524.64, 0.05, 0.04, 1.02
190, -172127.97, -172290.08, -172291.83, -172161.33, -158077.88, -43308.27, -172665.41, -172514.98, 0.05, 0.03, 1.02
191, -172273.92, -172282.03, -172286.64, -172314.98, -158163.53, -43379.68, -172641.72, -172520.17, 0.05, 0.03, 1.02
192, -172488.52, -172278.80, -172284.94, -172271.81, -158251.11, -43448.23, -172644.13, -172527.59, 0.05, 0.03, 1.02
193, -172500.13, -172277.50, -172279.33, -172128.86, -158308.06, -43465.40, -172658.69, -172500.86, 0.05, 0.03, 1.02
194, -172410.64, -172265.38, -172272.72, -172123.36, -158346.30, -43469.92, -172645.11, -172503.47, 0.05, 0.03, 1.02
195, -172359.48, -172247.14, -172259.91, -172299.69, -158444.69, -43550.92, -172610.61, -172515.47, 0.05, 0.03, 1.02
196, -172318.13, -172252.91, -172268.44, -172292.41, -158556.36, -43642.65, -172619.97, -172523.83, 0.05, 0.04, 1.02
197, -172261.33, -172247.66, -172259.22, -172172.36, -158633.25, -43679.35, -172632.73, -172494.17, 0.05, 0.04, 1.02
198, -172130.38, -172256.19, -172264.28, -172066.88, -158673.06, -43685.14, -172644.33, -172479.11, 0.05, 0.04, 1.02
199, -172148.66, -172258.23, -172257.33, -172212.52, -158737.14, -43729.91, -172620.33, -172488.94, 0.05, 0.04, 1.02
200, -172342.66, -172255.09, -172260.33, -172250.89, -158818.77, -43796.45, -172620.55, -172499.77, 0.05, 0.04, 1.02
201, -172494.44, -172241.63, -172241.08, -172133.66, -158890.81, -43835.30, -172614.61, -172488.45, 0.05, 0.03, 1.02
202, -172434.30, -172241.84, -172247.83, -172042.64, -158933.17, -43840.64, -172631.77, -172467.00, 0.05, 0.03, 1.02
203, -172365.05, -172220.55, -172232.64, -172207.69, -159004.05, -43890.96, -172588.59, -172474.41, 0.05, 0.03, 1.02
204, -172317.11, -172227.77, -172241.23, -172281.81, -159106.48, -43981.50, -172590.59, -172484.77, 0.05, 0.03, 1.02
205, -172270.83, -172215.84, -172230.33, -172195.23, -159195.33, -44040.13, -172583.58, -172470.59, 0.05, 0.03, 1.02
206, -172189.58, -172212.31, -172225.28, -172056.91, -159249.33, -44055.55, -172608.13, -172453.22, 0.05, 0.02, 1.03
207, -172076.42, -172220.61, -172226.00, -172118.11, -159304.08, -44084.19, -172595.19, -172454.92, 0.05, 0.02, 1.03
208, -172169.41, -172234.17, -172234.25, -172237.53, -159374.34, -44142.17, -172605.08, -172460.44, 0.05, 0.02, 1.03
209, -172384.52, -172209.03, -172213.95, -172157.25, -159447.81, -44189.42, -172576.09, -172459.06, 0.05, 0.02, 1.03
210, -172429.75, -172203.44, -172210.28, -172035.84, -159502.25, -44203.55, -172587.14, -172441.44, 0.05, 0.02, 1.03
211, -172353.78, -172193.41, -172200.94, -172138.95, -159554.92, -44230.43, -172567.52, -172439.81, 0.05, 0.03, 1.03
212, -172301.48, -172194.80, -172206.03, -172235.47, -159652.84, -44312.82, -172563.75, -172450.25, 0.05, 0.03, 1.03
213, -172253.64, -172183.97, -172196.05, -172170.50, -159749.41, -44385.63, -172544.70, -172449.61, 0.05, 0.03, 1.03
214, -172195.69, -172181.41, -172194.97, -172043.36, -159821.42, -44416.78, -172568.63, -172424.59, 0.05, 0.03, 1.03
215, -172064.53, -172187.53, -172196.25, -172070.25, -159863.45, -44429.16, -172574.11, -172418.94, 0.05, 0.03, 1.03
216, -172090.13, -172194.64, -172200.20, -172216.36, -159927.00, -44476.15, -172569.81, -172422.78, 0.05, 0.03, 1.03
217, -172282.03, -172186.03, -172189.27, -172167.19, -159997.36, -44526.91, -172548.44, -172431.30, 0.05, 0.03, 1.03
218, -172436.48, -172162.45, -172165.56, -172042.98, -160071.09, -44560.84, -172539.97, -172414.22, 0.05, 0.03, 1.03
219, -172382.33, -172163.44, -172177.25, -171991.44, -160123.59, -44580.24, -172545.33, -172402.55, 0.05, 0.03, 1.03
220, -172316.91, -172160.81, -172171.59, -172157.00, -160200.95, -44640.01, -172531.41, -172400.58, 0.05, 0.03, 1.03
221, -172255.14, -172162.66, -172170.75, -172157.73, -160284.53, -44708.07, -172533.20, -172424.88, 0.05, 0.04, 1.03
222, -172215.11, -172143.25, -172148.41, -172056.39, -160376.38, -44761.65, -172507.83, -172405.61, 0.05, 0.04, 1.03
223, -172143.66, -172142.61, -172157.25, -171966.16, -160436.30, -44783.68, -172532.34, -172382.77, 0.05, 0.04, 1.03
224, -172018.70, -172151.72, -172162.88, -172104.50, -160492.98, -44819.54, -172532.23, -172394.13, 0.05, 0.04, 1.03
225, -172058.27, -172162.09, -172166.45, -172137.22, -160552.55, -44863.70, -172539.75, -172395.80, 0.05, 0.04, 1.03
226, -172281.67, -172131.38, -172135.92, -172029.02, -160628.95, -44904.36, -172494.55, -172378.17, 0.05, 0.04, 1.03
227, -172349.92, -172135.06, -172143.03, -171949.33, -160686.38, -44924.57, -172517.67, -172363.77, 0.06, 0.03, 1.03
228, -172278.97, -172129.86, -172139.94, -172099.23, -160747.39, -44962.57, -172505.22, -172377.34, 0.06, 0.03, 1.03
229, -172210.73, -172133.59, -172145.47, -172149.20, -160824.19, -45025.15, -172506.64, -172382.25, 0.06, 0.03, 1.03
230, -172167.69, -172106.61, -172116.88, -172069.56, -160917.27, -45087.47, -172465.88, -172380.38, 0.06, 0.03, 1.03
231, -172118.53, -172101.91, -172115.83, -171954.22, -160998.81, -45127.43, -172485.88, -172355.55, 0.06, 0.03, 1.03
232, -171994.75, -172115.38, -172123.38, -172010.81, -161053.95, -45155.66, -172494.17, -172343.59, 0.06, 0.03, 1.03
233, -171994.13, -172137.66, -172138.48, -172102.41, -161102.31, -45191.71, -172520.95, -172348.91, 0.06, 0.03, 1.03
234, -172185.06, -172113.13, -172112.30, -172008.61, -161165.39, -45230.52, -172475.80, -172369.45, 0.06, 0.03, 1.03
235, -172327.83, -172103.20, -172113.98, -171949.42, -161234.45, -45258.44, -172483.09, -172340.58, 0.06, 0.03, 1.03
236, -172270.52, -172096.67, -172103.08, -172088.47, -161290.66, -45286.04, -172472.67, -172340.61, 0.06, 0.03, 1.03
237, -172203.56, -172104.09, -172113.81, -172116.72, -161367.94, -45347.62, -172482.48, -172348.73, 0.06, 0.03, 1.02
238, -172143.30, -172086.77, -172096.41, -172038.08, -161450.42, -45406.81, -172451.89, -172361.53, 0.06, 0.03, 1.02
239, -172113.25, -172064.80, -172077.72, -171936.86, -161551.47, -45465.82, -172435.45, -172328.53, 0.06, 0.03, 1.02
240, -172003.80, -172082.77, -172097.30, -171922.14, -161608.81, -45491.66, -172470.69, -172312.81, 0.06, 0.03, 1.02
241, -171950.64, -172102.91, -172109.39, -172068.27, -161653.42, -45521.36, -172490.50, -172318.33, 0.06, 0.03, 1.02
242, -172101.09, -172091.75, -172086.00, -172030.58, -161705.52, -45554.17, -172455.08, -172333.55, 0.06, 0.03, 1.03
243, -172306.22, -172061.36, -172067.34, -171922.13, -161794.59, -45603.10, -172426.45, -172314.13, 0.06, 0.03, 1.03
244, -172280.16, -172068.73, -172077.06, -171943.97, -161853.58, -45628.63, -172450.72, -172303.05, 0.06, 0.03, 1.03
245, -172205.95, -172068.34, -172079.02, -172083.91, -161918.31, -45675.03, -172444.95, -172307.47, 0.06, 0.03, 1.03
246, -172131.81, -172066.89, -172073.47, -172037.69, -161985.67, -45727.55, -172434.20, -172323.66, 0.06, 0.03, 1.03
247, -172100.63, -172031.53, -172044.28, -171949.97, -162087.89, -45792.91, -172391.13, -172314.42, 0.07, 0.04, 1.02
248, -172042.56, -172040.81, -172062.67, -171872.64, -162161.77, -45829.21, -172434.89, -172287.44, 0.07, 0.04, 1.02
249, -171913.41, -172058.02, -172070.56, -172008.09, -162212.11, -45860.21, -172450.30, -172292.78, 0.07, 0.04, 1.02
250, -171931.05, -172067.02, -172068.66, -172034.20, -162253.56, -45888.31, -172441.73, -172303.83, 0.07, 0.04, 1.02
251, -172156.64, -172025.75, -172033.45, -171938.02, -162336.11, -45937.21, -172385.47, -172280.98, 0.07, 0.04, 1.02
252, -172265.25, -172034.02, -172043.73, -171853.38, -162408.94, -45970.74, -172412.75, -172270.97, 0.07, 0.04, 1.02
253, -172195.52, -172031.41, -172042.27, -171984.63, -162466.23, -46002.44, -172407.02, -172266.30, 0.06, 0.03, 1.03
254, -172117.20, -172043.31, -172050.95, -172038.95, -162526.59, -46047.21, -172426.16, -172274.92, 0.06, 0.03, 1.03
255, -172072.42, -172011.31, -172018.53, -171962.14, -162617.67, -46108.43, -172367.80, -172283.39, 0.06, 0.03, 1.03
0, -172030.78, -172002.50, -172018.66, -171858.83, -162712.11, -46163.14, -172381.20, -172246.36, 0.06, 0.03, 1.03
1, -171904.63, -172021.95, -172033.23, -171897.63, -162763.86, -46189.14, -172410.36, -172248.77, 0.06, 0.03, 1.03
2, -171898.00, -172043.06, -172042.33, -172000.95, -162802.14, -46213.66, -172427.98, -172260.17, 0.06, 0.03, 1.03
3, -172088.84, -172008.58, -172006.34, -171923.20, -162864.73, -46249.69, -172372.36, -172275.66, 0.06, 0.03, 1.03
4, -172253.06, -171992.80, -172000.20, -171819.39, -162953.52, -46296.36, -172362.20, -172243.45, 0.06, 0.03, 1.03
5, -172193.67, -172004.02, -172010.55, -171885.27, -163005.50, -46318.27, -172384.45, -172242.47, 0.06, 0.03, 1.03
6, -172120.03, -172006.02, -172014.58, -172012.84, -163069.53, -46365.12, -172387.91, -172236.55, 0.06, 0.03, 1.03
7, -172058.31, -171991.75, -171994.36, -171953.16, -163144.80, -46416.50, -172357.58, -172261.17, 0.05, 0.04, 1.03
8, -172027.16, -171965.84, -171977.92, -171854.33, -163247.28, -46477.41, -172329.84, -172230.73, 0.05, 0.04, 1.03
9, -171931.83, -171980.31, -171996.69, -171819.89, -163309.55, -46505.53, -172373.11, -172219.06, 0.05, 0.04, 1.03
10, -171840.92, -172001.73, -172007.03, -171964.38, -163357.09, -46533.38, -172390.66, -172219.58, 0.05, 0.04, 1.03
11, -171965.67, -171993.63, -171987.73, -171932.98, -163406.20, -46561.92, -172355.88, -172233.06, 0.05, 0.04, 1.03
12, -172189.20, -171958.58, -171966.41, -171824.61, -163494.64, -46611.34, -172324.72, -172214.42, 0.05, 0.03, 1.03
13, -172187.31, -171966.20, -171978.92, -171809.30, -163556.25, -46636.20, -172344.45, -172200.73, 0.05, 0.03, 1.03
14, -172114.03, -171969.67, -171977.02, -171959.98, -163621.16, -46681.15, -172346.88, -172188.73, 0.05, 0.03, 1.03
15, -172039.52, -171973.95, -171977.92, -171928.66, -163685.81, -46727.26, -172352.53, -172217.14, 0.05, 0.03, 1.03
16, -172001.47, -171941.23, -171949.44, -171832.25, -163783.19, -46785.91, -172303.00, -172215.14, 0.05, 0.03, 1.03
17, -171924.67, -171945.42, -171962.45, -171798.67, -163850.38, -46815.93, -172332.77, -172190.95, 0.05, 0.03, 1.03
18, -171811.39, -171954.33, -171963.55, -171940.20, -163903.86, -46848.85, -172330.69, -172189.58, 0.05, 0.03, 1.03
19, -171895.77, -171965.86, -171965.86, -171913.94, -163953.44, -46883.90, -172347.48, -172194.56, 0.05, 0.03, 1.03
20, -172118.27, -171934.11, -171939.36, -171805.83, -164032.16, -46928.02, -172297.95, -172203.88, 0.05, 0.03, 1.03
21, -172160.81, -171936.97, -171947.36, -171793.80, -164096.84, -46951.43, -172315.83, -172175.59, 0.05, 0.03, 1.03
22, -172086.67, -171929.45, -171938.80, -171937.97, -164156.92, -46985.09, -172303.28, -172179.50, 0.05, 0.03, 1.03
23, -172017.64, -171939.83, -171945.81, -171921.97, -164229.17, -47040.16, -172315.06, -172184.56, 0.05, 0.03, 1.03
24, -171973.27, -171912.84, -171919.70, -171835.84, -164322.55, -47099.71, -172269.38, -172177.63, 0.05, 0.03, 1.03
25, -171917.30, -171909.52, -171929.72, -171754.28, -164404.42, -47138.38, -172295.67, -172156.34, 0.05, 0.03, 1.03
26, -171787.50, -171923.00, -171929.20, -171870.97, -164452.33, -47158.76, -172304.03, -172153.36, 0.05, 0.03, 1.03
27, -171829.34, -171933.69, -171936.19, -171916.77, -164504.63, -47195.77, -172316.09, -172158.50, 0.05, 0.03, 1.03
28, -172041.70, -171904.67, -171908.41, -171822.69, -164576.47, -47240.88, -172269.45, -172161.22, 0.06, 0.03, 1.04
29, -172151.50, -171896.95, -171909.70, -171749.34, -164658.67, -47279.57, -172275.27, -172128.41, 0.06, 0.03, 1.04
30, -172076.48, -171902.17, -171908.77, -171865.95, -164707.83, -47298.28, -172281.58, -172135.34, 0.06, 0.03, 1.04
31, -172006.64, -171902.92, -171911.33, -171907.27, -164779.38, -47353.20, -172281.42, -172146.47, 0.06, 0.03, 1.04
32, -171947.58, -171887.38, -171895.69, -171828.03, -164859.02, -47409.99, -172255.05, -172158.00, 0.06, 0.03, 1.04
33, -171911.44, -171872.89, -171890.97, -171733.45, -164955.33, -47463.73, -172248.30, -172132.55, 0.06, 0.04, 1.03
34, -171786.88, -171887.88, -171899.89, -171792.53, -165005.28, -47479.42, -172276.84, -172120.30, 0.06, 0.04, 1.03
35, -171760.45, -171900.88, -171902.28, -171908.41, -165058.08, -47511.96, -172276.80, -172124.31, 0.06, 0.04, 1.03
36, -171930.22, -171888.84, -171888.59, -171840.25, -165115.91, -47549.22, -172259.81, -172137.55, 0.06, 0.04, 1.03
37, -172124.88, -171855.09, -171864.88, -171739.72, -165209.83, -47604.32, -172215.92, -172115.22, 0.06, 0.04, 1.03
38, -172090.25, -171870.36, -171879.13, -171690.47, -165273.86, -47631.63, -172252.02, -172096.09, 0.05, 0.04, 1.03
39, -172010.03, -171869.53, -171876.27, -171839.80, -165332.66, -47669.88, -172245.23, -172102.86, 0.05, 0.04, 1.03
40, -171936.58, -171870.92, -171871.66, -171838.19, -165400.36, -47720.88, -172243.47, -172113.67, 0.05, 0.04, 1.03
41, -171904.59, -171839.05, -171848.56, -171751.73, -165503.78, -47785.39, -172197.98, -172107.52, 0.05, 0.04, 1.03
42, -171838.13, -171841.33, -171864.14, -171682.95, -165574.92, -47818.54, -172234.41, -172085.66, 0.05, 0.04, 1.03
43, -171708.89, -171854.42, -171867.20, -171818.69, -165627.19, -47847.13, -172240.53, -172087.75, 0.06, 0.03, 1.03
44, -171752.78, -171870.00, -171867.67, -171829.25, -165678.33, -47880.07, -172244.92, -172094.77, 0.06, 0.03, 1.03
45, -171979.28, -171829.47, -171837.72, -171728.33, -165758.81, -47926.65, -172190.06, -172090.97, 0.06, 0.03, 1.03
46, -172068.50, -171838.23, -171847.83, -171691.81, -165827.45, -47953.18, -172218.78, -172067.88, 0.06, 0.03, 1.03
47, -171994.55, -171830.75, -171842.11, -171829.97, -165883.63, -47982.71, -172208.27, -172075.77, 0.06, 0.03, 1.03
48, -171922.50, -171840.34, -171843.48, -171820.92, -165954.39, -48037.16, -172215.94, -172077.45, 0.06, 0.04, 1.03
49, -171879.17, -171813.20, -171812.09, -171741.61, -166050.03, -48099.99, -172164.89, -172085.45, 0.06, 0.04, 1.03
50, -171837.72, -171804.94, -171823.53, -171645.36, -166143.34, -48150.13, -172188.38, -172057.17, 0.06, 0.04, 1.03
51, -171710.59, -171814.30, -171827.55, -171721.67, -166195.52, -48173.89, -172200.56, -172048.41, 0.06, 0.04, 1.03
52, -171703.23, -171832.50, -171838.08, -171810.92, -166241.61, -48206.77, -172220.13, -172057.39, 0.06, 0.04, 1.03
53, -171897.77, -171810.50, -171808.36, -171729.56, -166308.23, -48248.63, -172165.78, -172061.22, 0.06, 0.04, 1.02
54, -172054.88, -171798.20, -171807.66, -171632.16, -166397.72, -48295.17, -172169.48, -172034.22, 0.06, 0.04, 1.02
55, -171989.83, -171799.97, -171809.88, -171708.23, -166450.33, -48314.66, -172182.83, -172033.30, 0.06, 0.04, 1.02
56, -171910.53, -171803.25, -171814.08, -171814.88, -166513.09, -48359.27, -172189.34, -172032.25, 0.06, 0.04, 1.02
57, -171846.17, -171794.20, -171795.50, -171749.55, -166587.88, -48411.02, -172161.84, -172067.86, 0.06, 0.04, 1.02
58, -171822.48, -171761.95, -171772.61, -171661.89, -166697.11, -48478.83, -172120.92, -172044.70, 0.06, 0.04, 1.02
59, -171728.31, -171783.03, -171802.09, -171617.22, -166763.39, -48509.79, -172175.06, -172017.19, 0.06, 0.03, 1.02
60, -171642.69, -171803.17, -171806.59, -171753.23, -166805.97, -48534.09, -172187.91, -172020.27, 0.06, 0.03, 1.02
61, -171774.78, -171790.61, -171789.58, -171732.22, -166854.22, -48564.28, -172158.47, -172029.86, 0.06, 0.03, 1.02
62, -171997.31, -171758.94, -171766.27, -171633.11, -166949.42, -48621.26, -172120.23, -172008.05, 0.06, 0.03, 1.02
63, -171984.95, -171773.86, -171785.42, -171614.50, -167012.05, -48645.60, -172158.89, -171999.59, 0.06, 0.03, 1.02
64, -171899.80, -171772.45, -171781.95, -171761.13, -167064.69, -48674.86, -172153.22, -172006.64, 0.06, 0.03, 1.03
65, -171826.17, -171763.92, -171769.39, -171746.27, -167129.53, -48722.22, -172141.53, -172017.03, 0.06, 0.03, 1.03
66, -171797.11, -171728.36, -171741.36, -171667.56, -167237.11, -48793.79, -172087.91, -172018.44, 0.06, 0.03, 1.03
67, -171732.56, -171740.98, -171758.64, -171574.80, -167318.00, -48834.92, -172129.33, -171988.55, 0.06, 0.03, 1.03
68, -171602.19, -171765.34, -171769.94, -171677.19, -167359.31, -48851.34, -172153.22, -171986.09, 0.06, 0.03, 1.03
69, -171663.17, -171769.66, -171767.98, -171753.03, -167398.47, -48872.24, -172150.61, -171988.83, 0.06, 0.04, 1.02
70, -171890.25, -171723.44, -171730.33, -171677.19, -167482.53, -48922.45, -172087.58, -172013.59, 0.06, 0.04, 1.02
71, -171986.91, -171732.06, -171737.59, -171566.83, -167570.59, -48971.31, -172101.66, -171978.58, 0.06, 0.04, 1.02
72, -171902.81, -171740.98, -171749.22, -171594.36, -167616.73, -48991.02, -172122.67, -171971.88, 0.06, 0.04, 1.02
73, -171817.31, -171738.08, -171744.14, -171722.08, -167668.23, -49024.19, -172119.69, -171973.02, 0.06, 0.04, 1.02
74, -171774.05, -171703.17, -171709.61, -171681.95, -167766.17, -49088.77, -172059.92, -171997.42, 0.06, 0.04, 1.03
75, -171742.69, -171700.33, -171712.95, -171585.48, -167873.47, -49150.48, -172072.19, -171962.69, 0.06, 0.04, 1.03
76, -171623.77, -171718.25, -171731.70, -171567.77, -167924.83, -49171.36, -172111.64, -171947.36, 0.06, 0.04, 1.03
77, -171550.70, -171737.13, -171744.70, -171703.53, -167955.00, -49183.52, -172133.66, -171952.61, 0.06, 0.04, 1.03
78, -171714.25, -171711.39, -171710.09, -171676.64, -168019.88, -49220.13, -172065.31, -171971.13, 0.06, 0.04, 1.03
79, -171933.38, -171684.14, -171689.11, -171578.95, -168121.39, -49278.04, -172048.02, -171947.66, 0.05, 0.03, 1.02
80, -171901.45, -171705.52, -171712.08, -171531.61, -168175.97, -49300.26, -172087.92, -171932.36, 0.05, 0.03, 1.02
81, -171812.25, -171704.33, -171714.08, -171670.73, -168225.17, -49328.76, -172086.34, -171922.22, 0.05, 0.03, 1.02
82, -171747.80, -171692.17, -171696.34, -171657.02, -168299.91, -49378.85, -172061.06, -171954.47, 0.05, 0.03, 1.02
83, -171725.58, -171666.47, -171672.44, -171578.05, -168419.41, -49455.13, -172021.34, -171942.36, 0.05, 0.03, 1.02
84, -171633.70, -171679.61, -171699.86, -171512.64, -168486.02, -49486.85, -172078.61, -171924.78, 0.06, 0.04, 1.02
85, -171522.83, -171703.17, -171707.50, -171639.39, -168519.42, -49499.77, -172099.31, -171923.44, 0.06, 0.04, 1.02
86, -171640.31, -171684.69, -171686.81, -171644.38, -168570.61, -49527.71, -172054.47, -171928.73, 0.06, 0.04, 1.02
87, -171878.67, -171651.52, -171659.30, -171561.64, -168680.89, -49596.22, -172005.30, -171900.72, 0.06, 0.04, 1.02
88, -171883.55, -171670.80, -171679.36, -171490.11, -168746.52, -49624.02, -172054.25, -171895.91, 0.06, 0.04, 1.02
89, -171790.11, -171675.61, -171683.11, -171621.78, -168787.50, -49639.80, -172066.77, -171895.73, 0.06, 0.04, 1.02
90, -171710.70, -171664.66, -171672.50, -171655.42, -168845.58, -49677.38, -172044.36, -171915.55, 0.05, 0.04, 1.03
91, -171685.58, -171630.13, -171636.77, -171594.20, -168964.25, -49756.79, -171980.06, -171930.16, 0.05, 0.04, 1.03
92, -171628.92, -171640.11, -171652.36, -171494.20, -169062.23, -49812.14, -172019.22, -171892.33, 0.05, 0.04, 1.03
93, -171502.11, -171669.66, -171673.48, -171519.61, -169099.81, -49823.42, -172059.83, -171881.53, 0.05, 0.04, 1.03
94, -171563.25, -171665.61, -171670.36, -171659.56, -169125.34, -49830.98, -172051.81, -171891.17, 0.05, 0.04, 1.03
95, -171790.23, -171624.31, -171632.94, -171645.19, -169215.95, -49887.50, -171973.44, -171898.80, 0.05, 0.04, 1.03
96, -171886.11, -171619.06, -171624.59, -171551.17, -169317.45, -49946.36, -171984.91, -171864.75, 0.05, 0.04, 1.03
97, -171810.95, -171635.48, -171643.94, -171463.02, -169374.39, -49973.67, -172020.45, -171862.09, 0.05, 0.04, 1.03
98, -171712.91, -171646.55, -171654.94, -171582.02, -169411.67, -49992.11, -172038.17, -171869.33, 0.05, 0.04, 1.03
99, -171660.78, -171611.92, -171617.56, -171676.02, -169500.11, -50051.37, -171973.06, -171892.63, 0.05, 0.04, 1.03
100, -171635.44, -171594.27, -171610.23, -171613.45, -169619.02, -50125.77, -171956.23, -171867.81, 0.05, 0.04, 1.03
101, -171556.25, -171593.36, -171610.67, -171507.03, -169694.45, -50166.16, -171984.75, -171856.50, 0.05, 0.04, 1.03
102, -171436.53, -171612.16, -171636.63, -171436.11, -169744.33, -50195.40, -172022.86, -171850.42, 0.05, 0.04, 1.03
103, -171518.66, -171613.09, -171617.98, -171562.70, -169792.20, -50217.93, -171984.52, -171861.03, 0.05, 0.04, 1.03
104, -171750.83, -171590.09, -171596.17, -171607.09, -169885.45, -50268.18, -171949.70, -171836.88, 0.05, 0.04, 1.03
105, -171798.39, -171589.73, -171592.02, -171502.16, -169958.55, -50303.47, -171963.61, -171824.72, 0.06, 0.04, 1.04
106, -171718.98, -171608.78, -171616.55, -171419.61, -170016.28, -50337.65, -172000.80, -171829.55, 0.06, 0.04, 1.04
107, -171636.16, -171593.13, -171603.75, -171540.31, -170071.11, -50369.25, -171968.70, -171855.05, 0.06, 0.04, 1.04
108, -171607.61, -171557.33, -171577.70, -171621.38, -170185.39, -50442.21, -171914.19, -171853.77, 0.06, 0.04, 1.04
109, -171525.84, -171569.59, -171581.39, -171530.83, -170269.70, -50489.17, -171953.59, -171819.70, 0.06, 0.04, 1.04
110, -171448.22, -171588.66, -171587.77, -171417.69, -170326.19, -50521.20, -171971.09, -171809.00, 0.05, 0.04, 1.03
111, -171553.97, -171592.86, -171601.53, -171438.45, -170360.20, -50531.86, -171985.84, -171824.31, 0.05, 0.04, 1.03
112, -171767.41, -171554.66, -171564.09, -171585.11, -170445.50, -50577.95, -171911.53, -171814.75, 0.05, 0.04, 1.03
113, -171797.48, -171554.80, -171560.78, -171534.44, -170530.69, -50622.25, -171930.75, -171792.17, 0.05, 0.04, 1.03
114, -171730.03, -171556.06, -171557.80, -171433.30, -170603.33, -50667.76, -171929.44, -171790.16, 0.05, 0.04, 1.03
115, -171647.31, -171574.31, -171579.83, -171405.80, -170658.84, -50702.49, -171959.08, -171796.66, 0.04, 0.04, 1.02
116, -171601.17, -171534.75, -171543.47, -171558.17, -170755.66, -50759.18, -171886.08, -171823.08, 0.04, 0.04, 1.02
117, -171558.39, -171523.55, -171543.52, -171532.84, -170855.75, -50815.06, -171902.61, -171781.67, 0.04, 0.04, 1.02
118, -171450.14, -171540.58, -171549.20, -171424.39, -170926.17, -50855.20, -171930.48, -171777.53, 0.04, 0.04, 1.02
119, -171391.97, -171564.75, -171570.89, -171383.31, -170967.23, -50876.01, -171952.91, -171781.47, 0.04, 0.04, 1.02
120, -171560.47, -171533.06, -171539.03, -171530.28, -171035.25, -50909.20, -171890.14, -171772.17, 0.04, 0.04, 1.02
121, -171743.59, -171523.58, -171527.70, -171516.23, -171121.80, -50950.24, -171895.97, -171767.67, 0.05, 0.03, 1.03
122, -171709.47, -171517.14, -171521.98, -171406.72, -171193.25, -50988.42, -171894.44, -171763.53, 0.05, 0.03, 1.03
123, -171627.44, -171533.78, -171545.00, -171378.48, -171253.30, -51026.35, -171919.28, -171760.88, 0.05, 0.03, 1.03
124, -171565.92, -171513.63, -171519.44, -171528.59, -171334.20, -51076.59, -171871.08, -171779.66, 0.05, 0.03, 1.03
125, -171534.30, -171488.86, -171507.97, -171518.08, -171445.11, -51142.27, -171859.19, -171749.48, 0.05, 0.03, 1.03
126, -171439.73, -171502.42, -171507.55, -171410.88, -171517.80, -51179.70, -171886.34, -171743.44, 0.04, 0.04, 1.02
127, -171357.72, -171528.80, -171528.31, -171323.92, -171569.59, -51208.80, -171919.22, -171748.83, 0.04, 0.04, 1.02
128, -171483.77, -171512.34, -171514.39, -171435.81, -171619.80, -51231.54, -171881.88, -171749.53, 0.04, 0.04, 1.02
129, -171699.19, -171483.36, -171494.63, -171501.17, -171713.66, -51279.46, -171850.02, -171727.89, 0.04, 0.04, 1.02
130, -171696.42, -171484.92, -171486.94, -171401.70, -171849.06, -51316.47, -171859.27, -171731.05, 0.04, 0.04, 1.02
131, -171635.16, -171489.59, -171500.97, -171328.94, -171979.88, -51390.55, -171867.83, -171729.92, 0.05, 0.04, 1.02
132, -171574.17, -171493.91, -171501.67, -171451.75, -171894.98, -51474.59, -171869.75, -171758.59, 0.05, 0.04, 1.02
133, -171558.58, -171468.03, -171472.61, -171532.78, -171829.97, -51588.99, -171816.06, -171761.66, 0.05, 0.04, 1.02
134, -171525.42, -171457.03, -171474.39, -171459.59, -171741.08, -51683.69, -171827.16, -171726.53, 0.05, 0.04, 1.02
135, -171464.83, -171460.83, -171478.27, -171384.92, -171627.27, -51779.69, -171839.67, -171726.25, 0.05, 0.04, 1.02
136, -171360.94, -171495.14, -171501.27, -171335.30, -171403.25, -51847.80, -171874.00, -171729.36, 0.05, 0.04, 1.03
137, -171486.13, -171467.88, -171477.45, -171457.05, -171375.63, -51890.96, -171830.39, -171725.61, 0.05, 0.04, 1.03
138, -171670.78, -171468.58, -171469.14, -171425.25, -171444.48, -51917.20, -171841.14, -171707.64, 0.05, 0.04, 1.03
139, -171646.64, -171470.08, -171469.91, -171319.23, -171514.70, -51957.16, -171849.42, -171702.78, 0.05, 0.04, 1.03
140, -171562.58, -171482.28, -171490.98, -171331.38, -171573.23, -51993.96, -171867.34, -171719.08, 0.05, 0.04, 1.03
141, -171519.25, -171441.70, -171453.67, -171477.86, -171691.64, -52057.93, -171790.39, -171723.00, 0.05, 0.04, 1.03
142, -171483.27, -171430.31, -171446.02, -171432.98, -171899.38, -52125.96, -171801.33, -171688.77, 0.05, 0.04, 1.03
143, -171420.23, -171426.55, -171441.66, -171345.69, -171904.47, -52208.13, -171809.00, -171690.25, 0.05, 0.04, 1.03
144, -171313.86, -171458.58, -171472.94, -171291.63, -171789.31, -52288.33, -171841.97, -171695.45, 0.05, 0.04, 1.03
145, -171427.06, -171441.67, -171451.47, -171433.97, -171685.63, -52366.65, -171800.70, -171693.00, 0.05, 0.04, 1.03
146, -171656.86, -171425.72, -171437.98, -171458.19, -171581.08, -52448.50, -171792.02, -171693.31, 0.05, 0.04, 1.02
147, -171669.58, -171432.73, -171437.00, -171369.45, -171370.53, -52518.24, -171802.98, -171682.33, 0.05, 0.04, 1.02
148, -171598.83, -171452.98, -171457.56, -171286.44, -171321.09, -52573.07, -171834.59, -171684.45, 0.05, 0.04, 1.02
149, -171538.66, -171425.98, -171439.80, -171390.08, -171406.38, -52625.21, -171788.33, -171689.05, 0.05, 0.04, 1.02
150, -171500.55, -171417.52, -171430.81, -171443.38, -171513.13, -52681.11, -171784.22, -171665.86, 0.05, 0.04, 1.02
151, -171429.63, -171414.22, -171427.08, -171339.66, -171585.48, -52714.26, -171803.13, -171661.41, 0.05, 0.04, 1.02
152, -171302.25, -171426.66, -171450.48, -171265.03, -171647.20, -52749.13, -171837.44, -171666.59, 0.06, 0.04, 1.03
153, -171303.09, -171428.63, -171431.75, -171386.84, -171760.95, -52780.09, -171795.95, -171679.97, 0.06, 0.04, 1.03
154, -171540.48, -171399.05, -171411.88, -171434.88, -171928.50, -52854.65, -171755.42, -171660.19, 0.06, 0.04, 1.03
155, -171640.02, -171398.61, -171403.27, -171346.13, -171856.91, -52932.64, -171766.95, -171654.75, 0.06, 0.04, 1.03
156, -171598.22, -171407.50, -171410.94, -171268.97, -171761.44, -53031.66, -171783.08, -171645.13, 0.06, 0.04, 1.03
157, -171540.36, -171410.45, -171419.88, -171310.67, -171657.72, -53118.49, -171784.13, -171678.11, 0.06, 0.04, 1.02
158, -171522.88, -171387.03, -171397.86, -171434.44, -171592.64, -53228.49, -171736.42, -171664.28, 0.06, 0.04, 1.02
159, -171485.28, -171389.75, -171398.33, -171369.50, -171439.50, -53312.84, -171760.41, -171638.95, 0.06, 0.04, 1.02
160, -171416.42, -171397.69, -171402.09, -171275.53, -171279.33, -53373.15, -171779.47, -171637.28, 0.06, 0.04, 1.02
161, -171288.34, -171417.16, -171422.78, -171257.09, -171315.08, -53406.81, -171799.34, -171650.63, 0.06, 0.04, 1.02
162, -171372.70, -171386.31, -171396.72, -171396.88, -171401.27, -53449.43, -171745.55, -171641.00, 0.05, 0.03, 1.03
163, -171575.09, -171389.42, -171391.47, -171342.75, -171476.47, -53478.04, -171766.75, -171627.39, 0.05, 0.03, 1.03
164, -171576.00, -171387.52, -171395.63, -171233.63, -171547.80, -53514.46, -171771.61, -171621.66, 0.05, 0.03, 1.03
165, -171488.97, -171400.44, -171410.09, -171278.78, -171612.48, -53545.84, -171785.69, -171624.88, 0.05, 0.03, 1.03
166, -171447.83, -171365.25, -171372.73, -171426.63, -171816.16, -53618.48, -171713.38, -171640.11, 0.05, 0.03, 1.03
167, -171421.00, -171352.28, -171369.72, -171384.41, -171896.83, -53712.16, -171716.98, -171613.94, 0.06, 0.03, 1.02
168, -171365.61, -171350.64, -171365.80, -171302.17, -171799.33, -53797.72, -171728.42, -171612.94, 0.06, 0.03, 1.02
169, -171261.34, -171375.67, -171383.53, -171226.03, -171691.98, -53885.32, -171755.14, -171617.38, 0.06, 0.03, 1.02
170, -171336.70, -171358.69, -171373.77, -171322.56, -171595.14, -53969.34, -171719.39, -171608.42, 0.06, 0.03, 1.02
171, -171569.03, -171344.83, -171360.56, -171380.08, -171500.45, -54051.23, -171710.30, -171606.20, 0.06, 0.03, 1.02
172, -171596.03, -171354.17, -171359.05, -171297.66, -171297.45, -54122.85, -171725.14, -171594.16, 0.05, 0.03, 1.03
173, -171523.84, -171373.67, -171378.55, -171207.41, -171222.00, -54173.70, -171756.88, -171602.47, 0.05, 0.03, 1.03
174, -171459.88, -171348.44, -171359.80, -171298.22, -171303.42, -54223.45, -171708.47, -171619.22, 0.05, 0.03, 1.03
175, -171423.70, -171337.48, -171350.75, -171369.75, -171417.31, -54285.39, -171705.84, -171594.25, 0.05, 0.03, 1.03
176, -171352.28, -171337.94, -171346.25, -171268.69, -171491.81, -54318.63, -171721.36, -171584.44, 0.05, 0.03, 1.03
177, -171228.58, -171344.28, -171358.28, -171174.55, -171557.33, -54356.91, -171742.63, -171587.66, 0.05, 0.03, 1.03
178, -171229.67, -171357.78, -171359.33, -171261.39, -171645.72, -54385.08, -171727.02, -171591.56, 0.05, 0.03, 1.03
179, -171457.00, -171321.28, -171332.94, -171365.09, -171837.36, -54450.79, -171680.09, -171591.00, 0.05, 0.03, 1.03
180, -171574.13, -171320.11, -171327.61, -171293.53, -171799.39, -54528.02, -171692.77, -171573.28, 0.05, 0.03, 1.03
181, -171532.83, -171323.80, -171327.81, -171215.50, -171701.48, -54621.43, -171698.08, -171579.88, 0.05, 0.03, 1.03
182, -171477.86, -171330.52, -171341.56, -171210.06, -171602.16, -54713.29, -171702.67, -171595.30, 0.05, 0.03, 1.03
183, -171457.03, -171303.25, -171315.44, -171352.31, -171537.00, -54822.61, -171655.58, -171597.22, 0.06, 0.04, 1.02
184, -171417.89, -171305.13, -171320.06, -171306.53, -171425.06, -54909.52, -171681.94, -171567.80, 0.06, 0.04, 1.02
185, -171360.36, -171315.25, -171322.92, -171217.89, -171217.83, -54984.11, -171696.47, -171565.81, 0.06, 0.04, 1.02
186, -171247.27, -171330.81, -171342.23, -171182.81, -171200.81, -55029.86, -171717.94, -171570.44, 0.06, 0.04, 1.02
187, -171234.94, -171316.48, -171323.45, -171318.30, -171289.92, -55074.90, -171675.78, -171565.08, 0.06, 0.04, 1.02
188, -171426.97, -171314.02, -171314.56, -171271.05, -171362.53, -55099.37, -171689.48, -171550.55, 0.03, 0.06, 1.02
189, -171529.50, -171308.13, -171312.14, -171158.98, -171431.58, -55133.39, -171690.61, -171546.77, 0.03, 0.06, 1.02
190, -171455.48, -171323.34, -171328.28, -171188.30, -171493.80, -55169.00, -171706.08, -171562.63, 0.03, 0.06, 1.02
191, -171412.08, -171284.41, -171294.13, -171336.91, -171679.88, -55238.64, -171635.39, -171558.08, 0.03, 0.06, 1.02
192, -171380.55, -171278.55, -171292.08, -171292.00, -171805.19, -55323.56, -171649.19, -171525.92, 0.03, 0.06, 1.02
193, -171330.88, -171273.66, -171285.59, -171208.48, -171717.81, -55408.34, -171644.09, -171529.78, 0.01, 0.03, 1.01
194, -171251.50, -171290.89, -171306.63, -171148.16, -171622.03, -55507.25, -171670.00, -171529.41, 0.01, 0.03, 1.01
195, -171220.30, -171280.61, -171296.31, -171255.63, -171528.08, -55594.51, -171640.17, -171550.73, 0.01, 0.03, 1.01
196, -171438.36, -171274.42, -171286.73, -171283.17, -171430.25, -55674.19, -171642.08, -171529.81, 0.01, 0.03, 1.01
197, -171495.34, -171272.00, -171278.70, -171189.88, -171222.66, -55741.49, -171646.17, -171518.97, 0.01, 0.03, 1.01
198, -171426.91, -171295.03, -171304.45, -171118.58, -171150.94, -55796.30, -171679.98, -171523.58, 0.08, 0.03, 0.99
199, -171359.13, -171280.31, -171288.00, -171242.45, -171228.34, -55842.79, -171637.78, -171542.53, 0.08, 0.03, 0.99
200, -171319.41, -171253.66, -171271.80, -171287.16, -171335.59, -55896.73, -171625.20, -171514.56, 0.08, 0.03, 0.99
201, -171243.55, -171256.25, -171269.92, -171177.30, -171410.25, -55927.04, -171651.36, -171503.97, 0.08, 0.03, 0.99
202, -171121.50, -171276.31, -171291.52, -171105.03, -171475.41, -55965.46, -171668.30, -171511.72, 0.08, 0.03, 0.99
203, -171178.92, -171278.53, -171280.42, -171230.81, -171576.39, -55998.98, -171647.80, -171515.41, 0.13, 0.02, 1.06
204, -171418.63, -171244.67, -171252.52, -171276.06, -171766.47, -56069.04, -171599.97, -171505.75, 0.13, 0.02, 1.06
205, -171482.31, -171242.00, -171244.69, -171184.78, -171713.73, -56142.30, -171613.20, -171505.47, 0.13, 0.02, 1.06
206, -171436.28, -171244.59, -171252.95, -171105.92, -171617.78, -56239.25, -171619.86, -171503.86, 0.13, 0.02, 1.06
207, -171382.52, -171251.61, -171262.69, -171161.34, -171521.16, -56334.98, -171614.70, -171512.33, 0.13, 0.02, 1.06
208, -171357.34, -171226.73, -171241.52, -171293.58, -171450.66, -56437.97, -171575.98, -171502.78, 0.13, 0.02, 1.06
209, -171315.55, -171231.92, -171243.66, -171224.42, -171310.30, -56515.36, -171606.20, -171474.83, 0.10, 0.02, 1.04
210, -171252.84, -171232.13, -171242.28, -171134.81, -171123.97, -56582.59, -171611.84, -171485.28, 0.10, 0.02, 1.04
211, -171134.47, -171257.36, -171267.22, -171103.98, -171155.03, -56634.20, -171641.98, -171492.13, 0.10, 0.02, 1.04
212, -171194.38, -171238.66, -171244.17, -171230.38, -171237.63, -56672.42, -171599.70, -171491.66, 0.10, 0.02, 1.04
213, -171399.63, -171234.61, -171233.88, -171174.13, -171305.38, -56691.15, -171615.66, -171464.00, 0.10, 0.02, 1.04
214, -171421.83, -171234.27, -171237.94, -171068.47, -171369.92, -56720.63, -171614.72, -171466.34, 0.04, 0.06, 1.02
215, -171342.70, -171241.64, -171248.31, -171170.38, -171440.17, -56762.27, -171622.48, -171478.36, 0.04, 0.06, 1.02
216, -171299.63, -171207.86, -171216.30, -171279.36, -171638.69, -56834.32, -171562.19, -171493.66, 0.04, 0.06, 1.02
217, -171267.73, -171198.52, -171212.09, -171207.19, -171727.86, -56917.02, -171565.22, -171456.06, 0.04, 0.06, 1.02
218, -171216.75, -171192.50, -171202.16, -171120.53, -171631.27, -57000.12, -171570.89, -171463.73, 0.04, 0.06, 1.02
219, -171129.20, -171211.00, -171225.28, -171065.53, -171539.75, -57103.95, -171589.00, -171468.34, 0.03, 0.05, 1.01
220, -171143.30, -171210.22, -171219.77, -171176.25, -171447.39, -57195.34, -171563.00, -171472.91, 0.03, 0.05, 1.01
221, -171370.78, -171192.77, -171205.77, -171202.38, -171337.81, -57270.33, -171563.69, -171448.58, 0.03, 0.05, 1.01
222, -171416.80, -171197.81, -171199.09, -171102.23, -171119.97, -57330.95, -171573.59, -171441.88, 0.03, 0.05, 1.01
223, -171351.75, -171211.34, -171222.31, -171046.67, -171082.48, -57386.02, -171595.05, -171445.00, 0.03, 0.05, 1.01
224, -171287.95, -171197.23, -171207.47, -171185.77, -171165.67, -57438.30, -171562.19, -171462.91, 0.03, 0.02, 1.01
225, -171246.25, -171179.64, -171191.27, -171200.20, -171269.66, -57491.19, -171544.17, -171437.84, 0.03, 0.02, 1.01
226, -171171.39, -171172.27, -171181.45, -171083.47, -171339.39, -57517.70, -171556.20, -171425.94, 0.03, 0.02, 1.01
227, -171051.80, -171193.50, -171206.33, -171024.64, -171409.28, -57559.29, -171580.30, -171418.11, 0.03, 0.02, 1.01
228, -171089.98, -171202.02, -171203.11, -171163.70, -171524.33, -57595.50, -171570.63, -171445.78, 0.03, 0.02, 1.01
229, -171326.50, -171160.69, -171172.47, -171205.22, -171696.63, -57664.41, -171518.11, -171431.86, 0.06, 0.01, 1.02
230, -171410.92, -171161.55, -171165.98, -171109.45, -171626.17, -57733.88, -171534.30, -171404.59, 0.06, 0.01, 1.02
231, -171370.38, -171161.22, -171169.67, -171033.55, -171532.44, -57831.36, -171532.27, -171402.22, 0.06, 0.01, 1.02
232, -171319.67, -171173.88, -171186.38, -171066.88, -171438.75, -57929.71, -171540.17, -171429.47, 0.06, 0.01, 1.02
233, -171293.06, -171148.39, -171164.05, -171197.86, -171366.48, -58030.34, -171499.78, -171423.77, 0.06, 0.01, 1.02
234, -171245.89, -171158.09, -171164.48, -171126.41, -171199.36, -58099.71, -171531.22, -171404.38, 0.04, 0.00, 1.03
235, -171185.83, -171152.11, -171159.14, -171034.89, -171049.48, -58163.13, -171526.70, -171400.41, 0.04, 0.00, 1.03
236, -171073.11, -171174.30, -171185.55, -171020.48, -171108.23, -58218.22, -171552.34, -171411.75, 0.04, 0.00, 1.03
237, -171109.53, -171158.52, -171167.69, -171151.86, -171190.63, -58254.16, -171520.08, -171408.75, 0.04, 0.00, 1.03
238, -171310.11, -171154.09, -171153.14, -171083.47, -171254.39, -58266.35, -171528.67, -171379.95, 0.04, 0.00, 1.03
239, -171327.55, -171152.67, -171157.84, -170991.89, -171313.17, -58287.58, -171537.03, -171377.88, 0.04, 0.00, 1.03
240, -171248.22, -171155.02, -171164.13, -171129.31, -171395.16, -58327.88, -171538.03, -171403.16, 0.02, 0.04, 0.99
241, -171213.16, -171119.39, -171136.97, -171185.92, -171613.05, -58408.32, -171479.34, -171424.78, 0.02, 0.04, 0.99
242, -171182.53, -171118.83, -171131.25, -171100.97, -171646.02, -58490.54, -171483.98, -171389.27, 0.02, 0.04, 0.99
243, -171128.58, -171114.33, -171125.38, -171005.95, -171543.42, -58570.60, -171488.39, -171373.36, 0.02, 0.04, 0.99
244, -171029.91, -171140.53, -171154.67, -171012.88, -171444.83, -58666.58, -171522.52, -171376.42, 0.02, 0.04, 0.99
245, -171082.09, -171127.55, -171139.92, -171165.45, -171348.88, -58754.15, -171487.98, -171401.11, 0.05, 0.02, 1.04
246, -171315.28, -171116.36, -171126.53, -171124.23, -171228.19, -58828.71, -171481.61, -171377.09, 0.05, 0.02, 1.04
247, -171339.89, -171118.28, -171118.11, -171014.36, -171011.56, -58877.49, -171493.59, -171365.25, 0.05, 0.02, 1.04
248, -171273.64, -171133.88, -171144.95, -170952.13, -171015.69, -58929.25, -171516.47, -171363.20, 0.05, 0.02, 1.04
249, -171206.78, -171124.45, -171136.94, -171092.47, -171098.00, -58978.76, -171490.64, -171389.75, 0.05, 0.02, 1.04
250, -171162.64, -171103.56, -171119.05, -171132.17, -171199.66, -59025.57, -171471.47, -171362.44, 0.07, 0.04, 1.02
251, -171088.67, -171097.50, -171108.50, -171018.16, -171268.27, -59047.47, -171489.23, -171352.80, 0.07, 0.04, 1.02
252, -170975.47, -171113.03, -171125.98, -170938.17, -171344.02, -59094.64, -171500.73, -171350.17, 0.07, 0.04, 1.02
253, -171006.63, -171123.09, -171129.39, -171047.81, -171462.70, -59133.30, -171487.63, -171364.09, 0.07, 0.04, 1.02
254, -171237.13, -171090.11, -171099.16, -171113.86, -171621.69, -59195.11, -171449.92, -171343.55, 0.07, 0.04, 1.02
255, -171339.61, -171082.13, -171086.19, -171013.23, -171542.59, -59256.75, -171454.19, -171331.06, 0.04, 0.01, 1.03
0, -171290.78, -171091.89, -171099.56, -170951.72, -171437.03, -59341.58, -171466.11, -171336.17, 0.04, 0.01, 1.03
1, -171238.25, -171091.38, -171105.81, -171095.25, -171341.09, -59440.02, -171461.48, -171361.28, 0.04, 0.01, 1.03
2, -171219.63, -171068.75, -171083.28, -171133.58, -171276.25, -59550.45, -171420.48, -171365.92, 0.04, 0.01, 1.03
3, -171178.69, -171067.81, -171079.67, -171039.56, -171128.84, -59624.48, -171439.69, -171323.86, 0.04, 0.01, 1.03
4, -171116.28, -171078.59, -171086.44, -170943.92, -170949.91, -59683.45, -171457.83, -171324.19, 0.03, -0.01, 1.05
5, -170998.69, -171094.86, -171107.45, -170997.19, -170988.81, -59730.70, -171470.16, -171331.25, 0.03, -0.01, 1.05
6, -171051.33, -171077.42, -171088.05, -171098.17, -171075.59, -59771.60, -171440.31, -171325.84, 0.03, -0.01, 1.05
7, -171250.05, -171081.28, -171081.83, -170980.28, -171139.28, -59781.93, -171461.48, -171310.45, 0.03, -0.01, 1.05
8, -171253.38, -171077.97, -171085.20, -170921.23, -171187.89, -59793.89, -171459.78, -171305.78, 0.03, -0.01, 1.05
9, -171181.41, -171066.64, -171078.61, -171070.91, -171263.69, -59842.37, -171442.13, -171317.47, 0.07, -0.02, 1.06
10, -171146.91, -171047.30, -171059.22, -171069.78, -171467.63, -59923.04, -171400.14, -171336.36, 0.07, -0.02, 1.06
11, -171113.50, -171041.41, -171053.06, -170972.88, -171572.81, -59997.94, -171408.95, -171302.91, 0.07, -0.02, 1.06
12, -171043.83, -171041.16, -171060.94, -170912.77, -171463.75, -60059.27, -171429.63, -171298.25, 0.07, -0.02, 1.06
13, -170938.95, -171055.23, -171067.19, -171062.05, -171354.77, -60143.54, -171428.13, -171300.28, 0.07, -0.02, 1.06
14, -171052.55, -171041.52, -171053.30, -171072.95, -171271.52, -60244.52, -171392.88, -171304.03, 0.07, -0.02, 1.06
15, -171273.05, -171033.39, -171042.83, -170974.55, -171161.70, -60323.85, -171400.34, -171298.02, 0.04, 0.04, 1.00
16, -171253.25, -171050.34, -171054.66, -170882.59, -170929.97, -60363.95, -171436.22, -171275.73, 0.04, 0.04, 1.00
17, -171172.45, -171048.47, -171060.23, -171017.77, -170899.91, -60400.36, -171433.88, -171280.31, 0.04, 0.04, 1.00
18, -171122.63, -171034.06, -171044.80, -171074.45, -171001.28, -60465.40, -171391.25, -171305.16, 0.04, 0.04, 1.00
19, -171087.75, -171024.45, -171036.14, -170988.63, -171112.55, -60520.90, -171391.14, -171278.81, 0.04, 0.04, 1.00
20, -170989.98, -171031.67, -171044.27, -170866.14, -171173.44, -60535.43, -171424.58, -171267.64, 0.05, 0.10, 1.01
21, -170881.98, -171051.14, -171053.16, -170951.64, -171220.02, -60551.39, -171437.52, -171269.03, 0.05, 0.10, 1.01
22, -171008.50, -171033.22, -171039.56, -171048.38, -171318.03, -60591.46, -171399.36, -171288.16, 0.05, 0.10, 1.01
23, -171241.02, -171008.03, -171015.92, -170979.42, -171525.25, -60658.96, -171366.77, -171270.38, 0.05, 0.10, 1.01
24, -171251.89, -171011.00, -171018.53, -170866.50, -171484.72, -60714.96, -171384.92, -171255.55, 0.05, 0.10, 1.01
25, -171184.11, -171010.20, -171022.22, -170950.63, -171366.59, -60783.31, -171385.13, -171254.55, 0.02, 0.06, 1.02
26, -171140.03, -171009.38, -171018.11, -171066.88, -171278.58, -60889.10, -171368.98, -171273.72, 0.02, 0.06, 1.02
27, -171126.45, -170996.30, -171002.84, -171023.58, -171217.63, -61002.91, -171341.30, -171292.55, 0.02, 0.06, 1.02
28, -171090.48, -170992.42, -171003.94, -170926.84, -171077.66, -61081.48, -171368.00, -171250.16, 0.02, 0.06, 1.02
29, -171012.31, -171002.66, -171019.66, -170850.11, -170881.73, -61132.06, -171392.14, -171245.00, 0.02, 0.06, 1.02
30, -170890.34, -171020.83, -171028.81, -170981.88, -170905.17, -61168.81, -171398.69, -171261.63, 0.05, 0.06, 1.05
31, -171000.67, -171002.28, -171009.30, -171020.08, -170996.11, -61214.32, -171367.00, -171249.89, 0.05, 0.06, 1.05
32, -171198.17, -170996.36, -170999.27, -170889.81, -171064.02, -61228.94, -171375.83, -171234.73, 0.05, 0.06, 1.05
33, -171178.77, -170997.41, -171002.17, -170840.08, -171116.36, -61242.32, -171379.36, -171224.92, 0.05, 0.06, 1.05
34, -171102.52, -170993.08, -171004.27, -170988.83, -171191.67, -61285.06, -171370.81, -171235.61, 0.05, 0.06, 1.05
35, -171068.00, -170966.41, -170978.75, -170988.69, -171399.89, -61365.01, -171322.00, -171258.02, 0.04, 0.07, 1.07
36, -171041.69, -170960.94, -170970.55, -170901.50, -171494.25, -61447.96, -171327.48, -171225.58, 0.04, 0.07, 1.07
37, -170977.34, -170963.19, -170981.50, -170821.56, -171384.94, -61510.28, -171347.06, -171213.66, 0.04, 0.07, 1.07
38, -170866.56, -170978.67, -170993.59, -170955.02, -171271.16, -61586.99, -171359.84, -171227.41, 0.04, 0.07, 1.07
39, -170937.34, -170966.28, -170975.33, -170988.47, -171184.20, -61684.46, -171316.38, -171227.48, 0.04, 0.07, 1.07
40, -171171.42, -170951.50, -170963.38, -170897.94, -171077.66, -61763.88, -171321.28, -171207.03, 0.07, 0.07, 1.08
41, -171171.47, -170967.08, -170973.16, -170789.27, -170849.39, -61804.25, -171348.16, -171202.28, 0.07, 0.07, 1.08
42, -171085.98, -170976.58, -170984.64, -170893.61, -170815.63, -61834.40, -171358.28, -171203.34, 0.07, 0.07, 1.08
43, -171027.97, -170948.66, -170965.88, -171012.78, -170908.19, -61890.50, -171318.16, -171231.36, 0.07, 0.07, 1.08
44, -170999.94, -170936.80, -170951.08, -170949.91, -171024.45, -61948.77, -171298.11, -171205.27, 0.07, 0.07, 1.08
45, -170916.45, -170943.72, -170956.89, -170822.63, -171095.00, -61968.46, -171335.03, -171182.30, 0.07, 0.07, 1.08
46, -170792.47, -170967.28, -170972.48, -170820.34, -171144.16, -61984.20, -171357.77, -171188.27, -0.01, 0.01, 1.06
47, -170879.61, -170961.38, -170962.20, -170958.25, -171227.66, -62013.82, -171332.31, -171204.39, -0.01, 0.01, 1.06
48, -171121.42, -170922.27, -170932.88, -170924.64, -171433.20, -62078.77, -171275.53, -171194.89, -0.01, 0.01, 1.06
49, -171178.84, -170929.58, -170932.97, -170812.97, -171407.52, -62140.04, -171304.34, -171176.94, -0.01, 0.01, 1.06
50, -171111.34, -170936.39, -170947.67, -170822.47, -171288.88, -62206.91, -171314.30, -171176.67, -0.01, 0.01, 1.06
51, -171058.61, -170930.91, -170937.19, -170961.53, -171191.27, -62301.29, -171290.42, -171185.86, 0.02, 0.04, 1.07
52, -171051.38, -170916.66, -170923.25, -170942.36, -171135.39, -62419.64, -171263.02, -171175.13, 0.02, 0.04, 1.07
53, -171016.03, -170913.48, -170927.52, -170846.38, -171010.55, -62495.86, -171289.39, -171176.36, 0.02, 0.04, 1.07
54, -170934.27, -170929.19, -170945.06, -170779.70, -170792.28, -62539.26, -171320.39, -171171.42, 0.02, 0.04, 1.07
55, -170800.94, -170941.69, -170953.09, -170916.11, -170784.95, -62566.87, -171327.48, -171184.03, 0.02, 0.04, 1.07
56, -170903.94, -170914.98, -170924.88, -170943.09, -170876.23, -62611.57, -171269.75, -171182.30, 0.08, 0.07, 1.09
57, -171121.08, -170910.06, -170913.70, -170829.95, -170961.09, -62636.40, -171284.66, -171152.94, 0.08, 0.07, 1.09
58, -171110.00, -170920.75, -170926.13, -170736.83, -171016.83, -62649.08, -171303.50, -171149.33, 0.08, 0.07, 1.09
59, -171018.58, -170926.33, -170934.48, -170872.58, -171070.67, -62673.82, -171305.38, -171155.70, 0.08, 0.07, 1.09
60, -170972.59, -170893.88, -170904.42, -170963.17, -171227.48, -62735.64, -171248.06, -171180.98, 0.08, 0.07, 1.09
61, -170954.00, -170875.03, -170894.81, -170898.77, -171412.38, -62816.78, -171237.25, -171147.80, 0.04, 0.03, 1.06
62, -170903.36, -170880.80, -170891.53, -170810.39, -171341.34, -62888.75, -171261.14, -171140.31, 0.04, 0.03, 1.06
63, -170801.47, -170896.16, -170910.55, -170733.44, -171235.44, -62974.94, -171280.56, -171138.30, 0.04, 0.03, 1.06
64, -170812.66, -170897.36, -170906.94, -170813.44, -171124.75, -63047.38, -171259.81, -171153.58, 0.04, 0.03, 1.06
65, -171054.23, -170869.42, -170887.19, -170907.22, -171025.39, -63123.54, -171234.52, -171130.52, 0.04, 0.03, 1.06
66, -171111.27, -170883.27, -170885.88, -170820.55, -170808.61, -63174.70, -171261.00, -171126.42, 0.05, 0.01, 1.04
67, -171037.83, -170895.59, -170899.11, -170726.34, -170754.48, -63214.53, -171274.95, -171131.78, 0.05, 0.01, 1.04
68, -170962.70, -170889.83, -170896.38, -170814.19, -170824.14, -63251.01, -171257.56, -171142.23, 0.05, 0.01, 1.04
69, -170930.48, -170858.16, -170872.98, -170907.53, -170935.19, -63305.37, -171216.95, -171123.36, 0.05, 0.01, 1.04
70, -170870.67, -170856.48, -170872.98, -170814.38, -171015.89, -63334.58, -171248.98, -171113.58, 0.05, 0.01, 1.04
71, -170751.66, -170855.66, -170874.66, -170710.38, -171085.95, -63368.78, -171261.67, -171106.47, 0.05, 0.07, 1.07
72, -170710.64, -170881.45, -170895.80, -170746.56, -171150.28, -63385.36, -171271.02, -171119.61, 0.05, 0.07, 1.07
73, -170910.84, -170854.03, -170859.55, -170877.63, -171340.58, -63429.35, -171208.61, -171121.86, 0.05, 0.07, 1.07
74, -171096.89, -170845.02, -170851.13, -170820.83, -171348.78, -63493.39, -171217.31, -171100.00, 0.05, 0.07, 1.07
75, -171070.17, -170849.27, -170849.67, -170733.95, -171243.34, -63571.46, -171218.69, -171101.91, 0.05, 0.07, 1.07
76, -171006.50, -170863.09, -170870.39, -170714.66, -171136.39, -63656.87, -171238.25, -171106.47, 0.05, 0.07, 1.07
77, -170979.22, -170841.59, -170847.88, -170872.47, -171059.97, -63751.24, -171187.67, -171112.00, 0.08, 0.08, 1.07
78, -170957.52, -170828.78, -170841.28, -170856.84, -170960.22, -63835.82, -171194.73, -171085.03, 0.08, 0.08, 1.07
79, -170896.09, -170840.48, -170849.33, -170763.39, -170745.58, -63892.66, -171222.81, -171088.42, 0.08, 0.08, 1.07
80, -170765.13, -170855.41, -170871.25, -170688.95, -170713.28, -63926.16, -171248.94, -171094.75, 0.08, 0.08, 1.07
81, -170761.56, -170841.31, -170848.77, -170807.39, -170788.69, -63955.29, -171206.41, -171101.41, 0.08, 0.08, 1.07
82, -170981.58, -170831.34, -170837.27, -170813.80, -170870.05, -63981.69, -171210.00, -171076.61, 0.04, 0.05, 1.08
83, -171040.13, -170834.02, -170835.73, -170696.42, -170932.25, -64001.91, -171214.41, -171074.25, 0.04, 0.05, 1.08
84, -170951.34, -170844.77, -170856.73, -170681.06, -170987.47, -64025.52, -171232.94, -171072.98, 0.04, 0.05, 1.08
85, -170890.30, -170821.25, -170825.56, -170839.58, -171109.42, -64069.38, -171177.31, -171084.16, 0.04, 0.05, 1.08
86, -170876.67, -170798.30, -170810.61, -170834.95, -171322.36, -64148.81, -171150.63, -171052.19, 0.04, 0.05, 1.08
87, -170826.59, -170797.81, -170814.28, -170746.36, -171274.50, -64220.34, -171182.08, -171052.95, 0.08, 0.05, 1.11
88, -170709.78, -170816.58, -170835.78, -170658.95, -171157.31, -64293.16, -171215.03, -171056.64, 0.08, 0.05, 1.11
89, -170717.36, -170827.50, -170831.30, -170745.19, -171038.94, -64355.14, -171188.58, -171070.48, 0.08, 0.05, 1.11
90, -170970.70, -170789.19, -170803.94, -170842.67, -170947.34, -64435.88, -171147.72, -171051.64, 0.08, 0.05, 1.11
91, -171049.88, -170800.67, -170808.00, -170759.77, -170739.11, -64492.29, -171176.98, -171050.39, 0.08, 0.05, 1.11
92, -170972.33, -170820.42, -170825.97, -170656.44, -170663.59, -64529.13, -171200.98, -171054.59, 0.04, 0.05, 1.05
93, -170888.38, -170818.84, -170820.55, -170716.69, -170726.02, -64559.99, -171183.88, -171059.09, 0.04, 0.05, 1.05
94, -170861.84, -170785.05, -170790.61, -170833.61, -170839.20, -64615.63, -171133.75, -171045.44, 0.04, 0.05, 1.05
95, -170809.83, -170778.20, -170793.86, -170753.11, -170924.95, -64646.52, -171165.41, -171037.11, 0.04, 0.05, 1.05
96, -170681.36, -170788.78, -170808.53, -170641.86, -170984.25, -64669.88, -171185.39, -171031.78, 0.04, 0.05, 1.05
97, -170639.73, -170803.13, -170816.30, -170671.30, -171031.30, -64679.15, -171193.84, -171037.44, 0.07, 0.07, 1.09
98, -170850.50, -170769.69, -170776.06, -170817.19, -171220.75, -64723.39, -171125.63, -171031.56, 0.07, 0.07, 1.09
99, -171023.05, -170760.75, -170773.09, -170773.27, -171274.30, -64790.86, -171130.69, -171024.41, 0.07, 0.07, 1.09
100, -170985.39, -170771.72, -170775.69, -170687.28, -171169.55, -64866.48, -171138.94, -171028.77, 0.07, 0.07, 1.09
101, -170915.98, -170784.42, -170790.19, -170634.33, -171056.47, -64943.57, -171152.69, -171028.22, 0.07, 0.07, 1.09
102, -170890.14, -170758.88, -170758.53, -170776.91, -170979.84, -65037.96, -171105.84, -171036.42, 0.05, 0.07, 1.05
103, -170875.22, -170749.17, -170761.44, -170783.86, -170889.83, -65128.60, -171109.42, -171005.30, 0.05, 0.07, 1.05
104, -170810.34, -170757.59, -170769.80, -170688.11, -170671.02, -65183.99, -171140.33, -171004.19, 0.05, 0.07, 1.05
105, -170668.27, -170780.00, -170790.48, -170614.64, -170614.59, -65209.18, -171168.16, -171010.44, 0.05, 0.07, 1.05
106, -170698.75, -170752.06, -170761.16, -170739.47, -170686.50, -65235.89, -171113.64, -171014.59, 0.05, 0.07, 1.05
107, -170934.42, -170739.50, -170750.11, -170743.05, -170782.55, -65270.51, -171112.19, -170988.63, 0.05, 0.07, 1.05
108, -170956.63, -170753.11, -170749.31, -170631.02, -170850.61, -65291.72, -171130.38, -170981.78, 0.06, 0.03, 1.04
109, -170858.36, -170769.83, -170772.50, -170561.89, -170899.13, -65308.04, -171163.33, -170994.81, 0.06, 0.03, 1.04
110, -170789.78, -170747.92, -170747.36, -170716.03, -171002.53, -65342.44, -171101.19, -170995.63, 0.06, 0.03, 1.04
111, -170777.14, -170718.64, -170727.80, -170781.56, -171225.52, -65418.01, -171071.44, -170969.53, 0.06, 0.03, 1.04
112, -170726.55, -170710.69, -170732.91, -170700.17, -171196.56, -65488.17, -171088.27, -170972.05, 0.06, 0.03, 1.04
113, -170607.08, -170739.42, -170747.81, -170605.03, -171077.27, -65557.24, -171126.48, -170971.81, 0.04, 0.05, 1.06
114, -170641.08, -170739.36, -170744.23, -170638.03, -170953.73, -65615.33, -171103.83, -170993.70, 0.04, 0.05, 1.06
115, -170901.67, -170698.83, -170715.52, -170760.22, -170871.70, -65699.58, -171054.61, -170977.52, 0.04, 0.05, 1.06
116, -170974.28, -170714.44, -170722.27, -170694.30, -170676.58, -65764.35, -171091.28, -170960.34, 0.04, 0.05, 1.06
117, -170894.86, -170731.53, -170732.20, -170586.55, -170575.92, -65799.82, -171119.30, -170959.02, 0.04, 0.05, 1.06
118, -170805.25, -170735.25, -170740.97, -170594.83, -170629.44, -65821.55, -171110.23, -170982.92, 0.07, 0.04, 1.08
119, -170776.78, -170698.52, -170709.14, -170742.20, -170742.16, -65873.59, -171048.97, -170964.58, 0.07, 0.04, 1.08
120, -170726.38, -170694.09, -170712.53, -170682.16, -170830.36, -65905.34, -171085.20, -170951.91, 0.07, 0.04, 1.08
121, -170600.72, -170702.25, -170715.39, -170567.36, -170891.13, -65928.32, -171101.48, -170947.55, 0.07, 0.04, 1.08
122, -170544.63, -170716.78, -170731.64, -170557.59, -170934.53, -65934.45, -171111.56, -170962.41, 0.07, 0.04, 1.08
123, -170750.27, -170686.86, -170696.52, -170712.16, -171119.63, -65977.52, -171045.52, -170940.41, 0.02, 0.02, 1.03
124, -170938.92, -170680.63, -170692.73, -170684.78, -171192.39, -66045.02, -171051.14, -170937.69, 0.02, 0.02, 1.03
125, -170903.88, -170695.86, -170693.72, -170591.91, -171085.88, -66115.20, -171066.66, -170936.77, 0.02, 0.02, 1.03
126, -170826.98, -170704.48, -170709.67, -170544.52, -170964.80, -66184.16, -171083.36, -170946.89, 0.02, 0.02, 1.03
127, -170798.38, -170680.80, -170680.23, -170698.52, -170886.23, -66278.93, -171029.00, -170955.17, 0.02, 0.02, 1.03
128, -170787.61, -170669.52, -170677.63, -170703.19, -170790.14, -66373.30, -171025.53, -170924.08, 0.03, 0.02, 1.05
129, -170723.67, -170675.08, -170685.67, -170608.22, -170575.16, -66427.66, -171059.92, -170921.27, 0.03, 0.02, 1.05
130, -170583.39, -170696.11, -170703.75, -170513.89, -170548.44, -66450.70, -171092.36, -170924.64, 0.03, 0.02, 1.05
131, -170599.86, -170678.77, -170685.89, -170619.05, -170615.08, -66471.45, -171040.14, -170939.41, 0.03, 0.02, 1.05
132, -170839.30, -170660.56, -170670.78, -170672.61, -170710.53, -66506.23, -171033.03, -170909.84, 0.03, 0.02, 1.05
133, -170885.00, -170679.95, -170678.55, -170558.47, -170773.83, -66524.22, -171059.48, -170904.72, 0.03, 0.02, 1.05
134, -170783.34, -170692.27, -170701.77, -170525.30, -170815.05, -66535.27, -171078.92, -170907.58, 0.02, 0.02, 1.04
135, -170709.81, -170665.78, -170676.02, -170685.64, -170902.69, -66565.91, -171036.14, -170933.55, 0.02, 0.02, 1.04
136, -170698.83, -170639.16, -170645.33, -170708.97, -171134.47, -66642.87, -170984.16, -170911.17, 0.02, 0.02, 1.04
137, -170655.08, -170633.86, -170652.41, -170626.38, -171138.19, -66715.53, -171015.03, -170894.89, 0.02, 0.02, 1.04
138, -170542.27, -170648.36, -170670.58, -170531.56, -171021.95, -66787.84, -171043.97, -170894.55, 0.02, 0.02, 1.04
139, -170530.30, -170672.14, -170670.25, -170554.69, -170899.39, -66848.74, -171029.31, -170908.58, 0.02, 0.01, 1.03
140, -170787.08, -170637.61, -170637.30, -170676.23, -170823.61, -66935.23, -170976.58, -170887.00, 0.02, 0.01, 1.03
141, -170891.47, -170627.41, -170639.41, -170611.28, -170656.05, -67002.26, -171000.97, -170883.08, 0.02, 0.01, 1.03
142, -170818.38, -170650.63, -170648.33, -170505.05, -170493.98, -67042.13, -171028.09, -170879.50, 0.02, 0.01, 1.03
143, -170726.34, -170656.03, -170658.27, -170520.22, -170527.91, -67061.94, -171028.08, -170896.88, 0.02, 0.01, 1.03
144, -170695.89, -170617.61, -170626.95, -170655.88, -170638.70, -67113.16, -170969.25, -170898.61, 0.02, 0.00, 1.03
145, -170653.80, -170613.81, -170627.59, -170594.19, -170734.16, -67149.48, -170996.98, -170866.78, 0.02, 0.00, 1.03
146, -170539.36, -170617.09, -170629.09, -170480.30, -170794.56, -67171.33, -171010.75, -170858.30, 0.02, 0.00, 1.03
147, -170448.50, -170631.38, -170647.94, -170462.64, -170835.88, -67178.14, -171032.61, -170867.88, 0.02, 0.00, 1.03
148, -170628.00, -170608.53, -170614.59, -170618.42, -171003.31, -67212.27, -170963.06, -170878.09, 0.02, 0.00, 1.03
149, -170839.39, -170594.75, -170606.84, -170602.64, -171109.17, -67275.64, -170964.17, -170854.47, 0.05, 0.04, 1.06
150, -170819.98, -170606.03, -170608.31, -170511.73, -171009.88, -67345.71, -170975.44, -170847.72, 0.05, 0.04, 1.06
151, -170739.30, -170628.56, -170633.39, -170459.63, -170884.58, -67409.93, -171007.53, -170859.97, 0.05, 0.04, 1.06
152, -170704.05, -170597.03, -170599.33, -170615.75, -170798.25, -67496.09, -170956.28, -170887.48, 0.05, 0.04, 1.06
153, -170696.83, -170584.42, -170591.34, -170635.05, -170713.41, -67591.13, -170936.28, -170859.67, 0.05, 0.04, 1.06
154, -170636.72, -170591.39, -170605.14, -170543.36, -170499.38, -67646.45, -170970.39, -170847.50, 0.14, 0.04, 1.18
155, -170497.45, -170615.13, -170624.81, -170447.67, -170453.17, -67671.16, -171003.94, -170842.47, 0.14, 0.04, 1.18
156, -170518.14, -170596.23, -170603.06, -170545.56, -170519.94, -67692.45, -170960.80, -170852.39, 0.14, 0.04, 1.18
157, -170756.73, -170572.86, -170585.41, -170590.83, -170617.13, -67724.98, -170944.44, -170833.59, 0.14, 0.04, 1.18
158, -170799.91, -170585.63, -170588.48, -170480.02, -170685.14, -67742.52, -170963.80, -170820.36, 0.14, 0.04, 1.18
159, -170702.17, -170600.41, -170607.50, -170417.22, -170732.91, -67753.30, -170990.95, -170822.47, 0.08, 0.03, 1.12
160, -170622.45, -170585.36, -170592.39, -170562.52, -170817.80, -67774.66, -170956.34, -170854.53, 0.08, 0.03, 1.12
161, -170611.95, -170553.06, -170563.45, -170609.45, -171045.63, -67848.41, -170897.94, -170841.64, 0.08, 0.03, 1.12
162, -170574.22, -170545.34, -170566.69, -170531.38, -171045.13, -67921.72, -170925.89, -170807.05, 0.08, 0.03, 1.12
163, -170467.45, -170560.77, -170580.75, -170438.06, -170929.86, -67991.63, -170950.88, -170809.55, 0.08, 0.03, 1.12
164, -170431.53, -170582.83, -170585.92, -170460.97, -170808.42, -68051.43, -170950.73, -170827.30, 0.08, 0.03, 1.12
165, -170673.28, -170548.14, -170551.83, -170591.13, -170724.36, -68133.13, -170895.78, -170814.42, 0.05, 0.02, 1.08
166, -170797.42, -170547.97, -170558.31, -170528.19, -170534.50, -68193.85, -170922.27, -170799.55, 0.05, 0.02, 1.08
167, -170724.52, -170570.92, -170577.44, -170418.48, -170417.22, -68223.73, -170959.45, -170792.59, 0.05, 0.02, 1.08
168, -170627.83, -170568.03, -170579.45, -170445.36, -170458.00, -68236.88, -170948.70, -170810.75, 0.05, 0.02, 1.08
169, -170598.05, -170530.30, -170546.86, -170585.52, -170567.81, -68288.13, -170887.11, -170807.59, 0.05, 0.02, 1.08
170, -170550.98, -170533.14, -170549.66, -170520.80, -170662.20, -68320.72, -170912.36, -170791.47, 0.02, 0.03, 1.04
171, -170418.39, -170554.53, -170561.63, -170402.11, -170720.19, -68336.19, -170944.92, -170775.81, 0.02, 0.03, 1.04
172, -170410.91, -170562.95, -170577.83, -170413.06, -170750.94, -68332.61, -170963.33, -170794.55, 0.02, 0.03, 1.04
173, -170621.56, -170525.19, -170537.56, -170567.70, -170910.78, -68366.07, -170883.94, -170805.34, 0.02, 0.03, 1.04
174, -170790.20, -170509.92, -170525.78, -170546.23, -171039.66, -68434.69, -170877.63, -170776.31, 0.02, 0.03, 1.04
175, -170749.44, -170517.09, -170524.97, -170460.52, -170946.06, -68504.18, -170886.88, -170770.39, 0.02, 0.02, 1.05
176, -170674.09, -170538.86, -170543.05, -170385.20, -170825.33, -68573.63, -170914.31, -170779.22, 0.02, 0.02, 1.05
177, -170639.11, -170520.11, -170516.22, -170508.28, -170740.55, -68662.37, -170860.78, -170779.34, 0.02, 0.02, 1.05
178, -170629.70, -170504.31, -170510.77, -170548.03, -170659.30, -68754.27, -170861.06, -170752.48, 0.02, 0.02, 1.05
179, -170571.16, -170509.09, -170519.28, -170457.13, -170445.33, -68806.76, -170886.59, -170759.61, 0.02, 0.02, 1.05
180, -170439.72, -170532.31, -170533.98, -170360.05, -170380.95, -68832.22, -170919.14, -170767.23, 0.00, 0.03, 1.02
181, -170428.69, -170522.19, -170527.06, -170447.06, -170443.92, -68851.20, -170889.30, -170771.33, 0.00, 0.03, 1.02
182, -170659.86, -170497.83, -170509.72, -170509.81, -170536.00, -68879.40, -170871.08, -170751.77, 0.00, 0.03, 1.02
183, -170718.06, -170505.84, -170507.13, -170403.38, -170602.19, -68893.93, -170882.19, -170743.27, 0.00, 0.03, 1.02
184, -170623.73, -170519.69, -170527.95, -170330.75, -170649.50, -68905.15, -170913.66, -170745.39, 0.00, 0.03, 1.02
185, -170543.64, -170502.50, -170512.33, -170477.06, -170732.86, -68929.65, -170875.58, -170758.77, 0.03, 0.02, 1.04
186, -170531.69, -170471.81, -170481.02, -170545.61, -170962.27, -69003.32, -170823.94, -170727.94, 0.03, 0.02, 1.04
187, -170492.53, -170466.31, -170488.14, -170465.50, -170966.47, -69072.68, -170847.50, -170726.00, 0.03, 0.02, 1.04
188, -170392.44, -170479.88, -170498.45, -170378.56, -170853.98, -69145.77, -170861.67, -170726.47, 0.03, 0.02, 1.04
189, -170350.73, -170499.14, -170502.31, -170364.00, -170732.98, -69207.80, -170866.05, -170739.81, 0.03, 0.02, 1.04
190, -170586.70, -170462.91, -170472.23, -170501.58, -170648.91, -69286.83, -170811.89, -170726.17, 0.02, 0.02, 1.04
191, -170718.59, -170468.45, -170479.08, -170451.84, -170471.09, -69347.67, -170845.94, -170716.78, 0.02, 0.02, 1.04
192, -170647.25, -170490.14, -170494.05, -170340.97, -170321.78, -69377.40, -170871.61, -170711.73, 0.02, 0.02, 1.04
193, -170550.23, -170492.69, -170500.47, -170353.84, -170357.56, -69391.99, -170874.70, -170732.45, 0.02, 0.02, 1.04
194, -170515.80, -170451.42, -170460.77, -170505.69, -170466.13, -69441.48, -170804.14, -170732.70, 0.02, 0.02, 1.04
195, -170476.56, -170445.86, -170464.41, -170455.98, -170564.80, -69480.04, -170827.52, -170699.78, 0.02, 0.02, 1.04
196, -170353.81, -170464.59, -170472.92, -170341.39, -170625.39, -69499.41, -170853.08, -170698.17, 0.02, 0.00, 1.03
197, -170308.78, -170481.06, -170491.86, -170310.16, -170661.17, -69501.79, -170873.42, -170707.44, 0.02, 0.00, 1.03
198, -170504.06, -170450.80, -170452.31, -170461.77, -170812.11, -69533.30, -170803.05, -170692.91, 0.02, 0.00, 1.03
199, -170693.72, -170430.48, -170443.84, -170444.94, -170950.83, -69593.09, -170798.84, -170685.52, 0.02, 0.00, 1.03
200, -170658.63, -170443.83, -170446.00, -170349.95, -170856.92, -69655.68, -170820.67, -170690.41, 0.02, 0.00, 1.03
201, -170580.91, -170461.61, -170466.53, -170291.09, -170733.03, -69719.54, -170838.28, -170700.72, 0.02, -0.01, 1.01
202, -170541.17, -170444.25, -170443.64, -170442.81, -170644.83, -69804.18, -170796.69, -170714.91, 0.02, -0.01, 1.01
203, -170534.95, -170426.44, -170428.30, -170474.09, -170569.22, -69899.29, -170774.23, -170684.44, 0.02, -0.01, 1.01
204, -170483.05, -170426.14, -170439.67, -170386.61, -170360.61, -69956.78, -170807.63, -170678.30, 0.02, -0.01, 1.01
205, -170350.47, -170453.09, -170458.48, -170285.80, -170286.72, -69983.82, -170847.75, -170678.58, 0.02, -0.01, 1.01
206, -170342.44, -170443.09, -170445.48, -170359.16, -170347.59, -70000.66, -170799.48, -170691.53, 0.01, -0.01, 1.03
207, -170577.08, -170406.56, -170421.58, -170430.39, -170443.47, -70031.30, -170778.70, -170665.78, 0.01, -0.01, 1.03
208, -170627.58, -170427.67, -170427.86, -170325.67, -170507.34, -70043.97, -170807.27, -170657.11, 0.01, -0.01, 1.03
209, -170534.63, -170441.86, -170450.06, -170240.06, -170555.47, -70057.27, -170830.75, -170663.78, 0.01, -0.01, 1.03
210, -170451.06, -170418.70, -170435.11, -170373.13, -170626.48, -70079.66, -170798.23, -170689.20, 0.01, -0.01, 1.03
211, -170435.02, -170385.11, -170401.33, -170460.59, -170850.00, -70147.95, -170739.19, -170672.23, -0.01, 0.00, 1.00
212, -170395.81, -170382.41, -170404.80, -170386.66, -170906.33, -70218.36, -170762.88, -170646.75, -0.01, 0.00, 1.00
213, -170283.27, -170409.97, -170416.78, -170293.31, -170793.16, -70286.49, -170788.31, -170647.00, -0.01, 0.00, 1.00
214, -170317.06, -170421.52, -170426.17, -170282.16, -170664.02, -70340.80, -170795.17, -170663.77, -0.01, 0.00, 1.00
215, -170569.00, -170376.86, -170390.67, -170426.06, -170582.16, -70419.33, -170729.56, -170653.27, -0.01, 0.00, 1.00
216, -170654.73, -170378.48, -170389.08, -170382.14, -170433.14, -70487.92, -170750.88, -170631.16, -0.02, -0.00, 1.00
217, -170584.50, -170400.63, -170398.05, -170279.86, -170246.95, -70529.34, -170777.97, -170623.02, -0.02, -0.00, 1.00
218, -170491.41, -170413.50, -170416.36, -170242.45, -170269.42, -70549.84, -170793.31, -170649.73, -0.02, -0.00, 1.00
219, -170452.41, -170373.08, -170382.20, -170400.48, -170375.52, -70596.24, -170725.03, -170641.30, -0.02, -0.00, 1.00
220, -170414.80, -170365.27, -170381.58, -170378.77, -170476.95, -70631.53, -170745.11, -170618.81, -0.02, -0.00, 1.00
221, -170302.55, -170376.95, -170391.50, -170264.77, -170541.33, -70649.41, -170771.39, -170611.13, 0.00, -0.02, 1.02
222, -170217.72, -170397.16, -170413.53, -170237.34, -170578.94, -70650.53, -170799.95, -170628.11, 0.00, -0.02, 1.02
223, -170387.39, -170367.69, -170380.70, -170384.48, -170710.77, -70676.30, -170726.89, -170639.20, 0.00, -0.02, 1.02
224, -170600.88, -170351.84, -170364.98, -170366.42, -170878.31, -70734.02, -170719.02, -170601.89, 0.00, -0.02, 1.02
225, -170583.77, -170360.41, -170362.73, -170273.70, -170800.09, -70796.66, -170727.72, -170606.19, 0.00, -0.02, 1.02
226, -170511.55, -170377.11, -170382.33, -170210.11, -170681.52, -70865.02, -170755.88, -170606.19, 0.00, -0.02, 1.02
227, -170467.03, -170363.05, -170362.44, -170349.09, -170589.84, -70946.16, -170713.31, -170633.14, 0.00, -0.01, 1.03
228, -170462.53, -170345.19, -170347.41, -170392.94, -170520.94, -71040.66, -170688.63, -170605.73, 0.00, -0.01, 1.03
229, -170414.67, -170342.33, -170355.63, -170306.56, -170321.42, -71102.20, -170723.16, -170599.19, 0.00, -0.01, 1.03
230, -170290.30, -170370.27, -170376.25, -170207.45, -170208.89, -71135.30, -170760.14, -170594.63, 0.00, -0.01, 1.03
231, -170247.98, -170363.06, -170365.44, -170275.34, -170262.81, -71153.16, -170723.38, -170605.19, 0.00, -0.01, 1.03
232, -170473.22, -170328.92, -170341.78, -170357.48, -170353.17, -71179.73, -170697.98, -170587.14, -0.01, -0.01, 1.03
233, -170557.73, -170338.41, -170341.83, -170258.17, -170421.83, -71192.77, -170715.27, -170573.17, -0.01, -0.01, 1.03
234, -170470.80, -170355.36, -170361.08, -170168.19, -170477.22, -71208.12, -170737.19, -170572.17, -0.01, -0.01, 1.03
235, -170384.56, -170342.19, -170349.56, -170288.23, -170552.00, -71228.50, -170710.34, -170593.94, -0.01, -0.01, 1.03
236, -170369.50, -170308.17, -170316.89, -170368.20, -170780.44, -71296.61, -170652.56, -170580.08, -0.01, -0.01, 1.03
237, -170333.77, -170304.44, -170324.31, -170290.38, -170811.42, -71364.29, -170684.98, -170562.98, -0.02, -0.03, 1.01
238, -170235.34, -170309.89, -170332.64, -170199.75, -170700.44, -71434.70, -170701.67, -170566.63, -0.02, -0.03, 1.01
239, -170181.58, -170338.39, -170346.84, -170201.75, -170574.09, -71491.07, -170714.69, -170579.81, -0.02, -0.03, 1.01
240, -170403.80, -170304.22, -170316.17, -170342.91, -170484.33, -71563.66, -170651.89, -170575.09, -0.02, -0.03, 1.01
241, -170561.48, -170307.02, -170316.39, -170294.61, -170310.27, -71626.14, -170679.50, -170551.83, -0.02, -0.03, 1.01
242, -170500.67, -170322.72, -170317.27, -170186.27, -170163.80, -71658.46, -170705.42, -170558.28, -0.02, -0.04, 1.03
243, -170409.41, -170329.61, -170331.22, -170169.41, -170203.77, -71677.46, -170708.78, -170569.44, -0.02, -0.04, 1.03
244, -170373.17, -170288.70, -170303.13, -170325.58, -170310.50, -71727.80, -170641.14, -170548.59, -0.02, -0.04, 1.03
245, -170334.03, -170285.89, -170300.97, -170285.53, -170408.95, -71762.66, -170663.20, -170539.98, -0.02, -0.04, 1.03
246, -170227.06, -170291.61, -170307.92, -170171.17, -170473.38, -71782.71, -170683.81, -170535.33, -0.02, -0.04, 1.03
247, -170125.36, -170313.58, -170331.50, -170143.17, -170511.39, -71787.84, -170713.66, -170535.36, -0.02, -0.00, 1.01
248, -170276.97, -170288.59, -170293.00, -170297.64, -170651.97, -71811.15, -170641.06, -170540.05, -0.02, -0.00, 1.01
249, -170503.95, -170266.39, -170280.61, -170295.56, -170792.06, -71872.50, -170634.27, -170516.45, -0.02, -0.00, 1.01
250, -170499.69, -170275.42, -170278.88, -170204.34, -170700.77, -71936.56, -170647.72, -170530.48, -0.02, -0.00, 1.01
251, -170430.13, -170291.03, -170295.67, -170134.86, -170583.84, -72007.80, -170667.83, -170537.64, -0.02, -0.00, 1.01
252, -170390.50, -170270.22, -170282.16, -170269.13, -170494.47, -72092.87, -170628.86, -170541.88, -0.03, -0.02, 1.01
253, -170380.13, -170258.73, -170270.73, -170321.77, -170420.58, -72185.54, -170613.98, -170513.78, -0.03, -0.02, 1.01
254, -170326.05, -170265.08, -170275.31, -170233.09, -170214.52, -72240.63, -170643.97, -170511.89, -0.03, -0.02, 1.01
255, -170205.41, -170282.36, -170291.78, -170131.61, -170131.39, -72270.95, -170673.05, -170516.33, -0.03, -0.02, 1.01
0, -170162.50, -170280.75, -170286.30, -170178.13, -170188.88, -72286.23, -170648.23, -170521.75, -0.03, -0.02, 1.01
1, -170375.30, -170250.27, -170261.39, -170273.11, -170276.70, -72311.09, -170614.02, -170512.64, -0.03, -0.02, 1.01
2, -170479.05, -170258.53, -170257.75, -170180.86, -170344.30, -72326.60, -170638.94, -170495.44, -0.03, -0.04, 1.01
