%OpenBCI Raw EEG Data
%
%Sample Rate = 250.0 Hz
%First Column = SampleIndex
%Other Columns = EEG data in microvolts followed by Accel Data (in G) interleaved with Aux Data
0, -181421.91, -180715.09, -181580.52, -181477.31, -145340.41, -78229.25, -181954.44, -181802.36, -0.04, 0.32, 0.41
1, -181378.81, -180771.41, -181569.52, -181346.83, -145363.14, -78226.86, -181960.11, -181785.48, -0.04, 0.32, 0.41
2, -181499.56, -180875.77, -181545.72, -181479.22, -145443.28, -78289.22, -181905.59, -181781.39, -0.08, 0.63, 0.82
3, -181732.94, -181080.50, -181528.77, -181590.64, -145617.70, -78448.98, -181864.45, -181801.19, -0.08, 0.63, 0.82
4, -181764.56, -181266.36, -181556.64, -181505.56, -145752.50, -78563.09, -181917.91, -181784.66, -0.08, 0.63, 0.82
5, -181635.03, -181341.42, -181551.64, -181336.95, -145791.73, -78579.25, -181944.41, -181763.98, -0.08, 0.63, 0.82
6, -181537.11, -181354.77, -181525.02, -181431.31, -145874.09, -78643.42, -181890.02, -181773.55, -0.08, 0.63, 0.82
7, -181521.73, -181456.06, -181505.77, -181577.88, -146064.84, -78819.73, -181847.78, -181776.50, -0.09, 0.62, 0.81
8, -181466.88, -181512.09, -181538.69, -181535.88, -146232.02, -78970.30, -181896.50, -181762.22, -0.09, 0.62, 0.81
9, -181347.34, -181494.61, -181546.14, -181356.92, -146279.73, -78995.11, -181941.67, -181754.56, -0.09, 0.62, 0.81
10, -181438.64, -181479.28, -181518.78, -181381.86, -146339.09, -79034.45, -181886.69, -181745.31, -0.09, 0.62, 0.81
11, -181676.17, -181484.52, -181490.22, -181535.78, -146502.14, -79183.35, -181839.58, -181774.17, -0.09, 0.62, 0.81
12, -181771.80, -181490.25, -181511.16, -181532.92, -146694.98, -79360.13, -181860.48, -181776.16, -0.10, 0.63, 0.82
13, -181676.30, -181512.41, -181532.09, -181375.80, -146773.55, -79416.30, -181911.63, -181745.52, -0.10, 0.63, 0.82
14, -181569.03, -181483.89, -181504.34, -181378.75, -146841.66, -79462.75, -181872.73, -181736.78, -0.10, 0.63, 0.82
15, -181541.95, -181458.58, -181484.69, -181528.02, -147014.55, -79618.70, -181819.19, -181748.31, -0.10, 0.63, 0.82
16, -181545.31, -181478.45, -181501.14, -181540.44, -147223.89, -79811.53, -181845.47, -181746.50, -0.10, 0.63, 0.82
17, -181431.73, -181484.89, -181518.08, -181397.98, -147317.44, -79884.17, -181894.20, -181729.59, -0.10, 0.63, 0.82
18, -181333.34, -181480.36, -181505.30, -181305.97, -147362.14, -79909.45, -181885.45, -181718.98, -0.10, 0.63, 0.82
19, -181512.05, -181452.42, -181471.84, -181471.61, -147486.30, -80019.84, -181817.63, -181720.44, -0.10, 0.63, 0.82
20, -181730.67, -181453.78, -181480.25, -181545.02, -147690.28, -80209.81, -181819.13, -181723.55, -0.10, 0.63, 0.82
21, -181685.91, -181478.23, -181498.14, -181426.42, -147801.36, -80301.61, -181871.88, -181724.45, -0.10, 0.63, 0.82
22, -181573.39, -181466.83, -181483.27, -181290.09, -147856.81, -80335.95, -181862.33, -181706.53, -0.10, 0.63, 0.82
23, -181509.95, -181433.17, -181460.38, -181433.47, -147982.02, -80444.95, -181808.33, -181717.44, -0.09, 0.64, 0.83
24, -181511.77, -181440.64, -181468.69, -181537.16, -148188.86, -80638.12, -181806.02, -181746.28, -0.09, 0.64, 0.83
25, -181454.86, -181452.11, -181482.81, -181452.73, -148327.06, -80759.51, -181843.89, -181717.44, -0.09, 0.64, 0.83
26, -181303.91, -181452.66, -181479.59, -181284.78, -148375.05, -80788.32, -181869.36, -181700.20, -0.09, 0.64, 0.83
27, -181381.73, -181433.50, -181449.16, -181368.75, -148465.11, -80862.93, -181807.00, -181686.91, -0.09, 0.64, 0.83
28, -181644.02, -181419.02, -181437.55, -181504.88, -148656.44, -81041.55, -181782.42, -181687.27, -0.08, 0.63, 0.83
29, -181684.97, -181442.98, -181465.67, -181443.56, -148806.95, -81175.32, -181825.88, -181702.70, -0.08, 0.63, 0.83
30, -181572.20, -181454.19, -181465.36, -181276.52, -148860.63, -81206.30, -181855.50, -181684.38, -0.08, 0.63, 0.83
31, -181482.66, -181420.88, -181439.14, -181346.88, -148949.34, -81276.02, -181794.42, -181684.30, -0.08, 0.63, 0.83
32, -181472.52, -181411.27, -181432.05, -181512.19, -149141.63, -81454.27, -181768.05, -181688.14, -0.08, 0.63, 0.83
33, -181450.72, -181422.53, -181452.94, -181487.31, -149319.02, -81615.80, -181803.63, -181682.66, -0.08, 0.63, 0.82
34, -181300.30, -181422.44, -181463.33, -181311.78, -149377.91, -81654.97, -181847.86, -181674.56, -0.08, 0.63, 0.82
35, -181298.25, -181418.17, -181437.06, -181285.31, -149435.02, -81695.60, -181804.80, -181670.48, -0.08, 0.63, 0.82
36, -181532.64, -181400.73, -181412.55, -181452.13, -149587.45, -81835.92, -181750.81, -181695.88, -0.08, 0.63, 0.82
37, -181684.77, -181408.23, -181431.27, -181459.38, -149773.48, -82008.08, -181774.33, -181697.13, -0.08, 0.63, 0.82
38, -181598.73, -181426.33, -181443.14, -181300.53, -149847.05, -82065.37, -181832.94, -181662.92, -0.07, 0.63, 0.81
39, -181490.61, -181406.44, -181428.30, -181258.31, -149906.11, -82107.37, -181795.78, -181657.53, -0.07, 0.63, 0.81
40, -181455.08, -181380.69, -181406.44, -181434.94, -150063.58, -82251.20, -181730.88, -181671.31, -0.07, 0.63, 0.81
41, -181459.08, -181399.75, -181420.63, -181469.69, -150267.52, -82443.34, -181757.52, -181671.44, -0.07, 0.63, 0.81
42, -181351.30, -181400.72, -181435.00, -181330.58, -150359.23, -82517.74, -181814.63, -181654.19, -0.07, 0.63, 0.81
43, -181244.23, -181397.55, -181425.55, -181224.63, -150400.30, -82541.80, -181804.36, -181641.36, -0.07, 0.63, 0.81
44, -181414.33, -181380.16, -181399.02, -181387.22, -150516.83, -82646.27, -181733.27, -181634.50, -0.07, 0.63, 0.81
45, -181642.89, -181377.92, -181403.48, -181469.52, -150711.92, -82829.88, -181736.69, -181638.67, -0.07, 0.63, 0.81
46, -181605.22, -181401.09, -181420.97, -181352.58, -150820.22, -82920.30, -181793.28, -181642.16, -0.07, 0.63, 0.81
47, -181489.59, -181392.16, -181408.78, -181217.23, -150866.88, -82948.69, -181787.00, -181633.38, -0.07, 0.63, 0.81
48, -181421.53, -181366.42, -181380.84, -181358.22, -150981.09, -83048.28, -181738.05, -181647.95, -0.07, 0.63, 0.82
49, -181423.31, -181371.53, -181380.25, -181460.44, -151183.91, -83238.19, -181729.31, -181680.92, -0.07, 0.63, 0.82
50, -181368.63, -181369.92, -181401.41, -181380.28, -151323.42, -83361.07, -181757.81, -181645.84, -0.07, 0.63, 0.82
51, -181221.39, -181371.45, -181401.31, -181207.36, -151369.78, -83388.27, -181789.77, -181620.56, -0.07, 0.63, 0.82
52, -181296.94, -181362.55, -181376.11, -181276.13, -151452.13, -83457.12, -181731.39, -181608.56, -0.07, 0.63, 0.82
53, -181550.58, -181344.19, -181363.08, -181427.41, -151625.44, -83621.61, -181705.39, -181649.09, -0.07, 0.63, 0.82
54, -181614.53, -181359.75, -181386.45, -181376.22, -151776.36, -83758.96, -181743.56, -181636.22, -0.08, 0.63, 0.82
55, -181503.42, -181369.89, -181390.41, -181206.77, -151824.94, -83787.88, -181776.77, -181605.44, -0.08, 0.63, 0.82
56, -181412.56, -181338.59, -181357.52, -181272.34, -151906.83, -83853.93, -181714.36, -181604.34, -0.08, 0.63, 0.82
57, -181402.80, -181333.91, -181350.00, -181414.73, -152093.80, -84029.99, -181686.97, -181623.41, -0.08, 0.63, 0.82
58, -181388.64, -181344.33, -181369.80, -181388.67, -152269.59, -84192.11, -181715.39, -181607.73, -0.08, 0.63, 0.82
59, -181247.25, -181342.95, -181375.69, -181217.41, -152329.06, -84234.49, -181761.19, -181587.16, -0.08, 0.63, 0.82
60, -181203.16, -181336.83, -181357.02, -181186.75, -152382.44, -84274.92, -181723.86, -181585.47, -0.08, 0.63, 0.82
61, -181427.00, -181308.61, -181328.45, -181371.28, -152526.63, -84410.84, -181665.50, -181593.80, -0.08, 0.63, 0.82
62, -181599.72, -181319.05, -181342.78, -181392.53, -152705.09, -84577.14, -181688.19, -181614.64, -0.08, 0.63, 0.82
63, -181519.53, -181346.17, -181363.30, -181234.22, -152777.16, -84628.06, -181747.33, -181583.22, -0.08, 0.63, 0.82
64, -181410.39, -181328.16, -181345.08, -181166.69, -152830.70, -84663.95, -181716.84, -181578.95, -0.10, 0.63, 0.81
65, -181372.20, -181300.56, -181322.00, -181346.78, -152980.25, -84801.78, -181657.41, -181589.75, -0.10, 0.63, 0.81
66, -181377.27, -181315.88, -181335.38, -181395.22, -153180.64, -84989.76, -181676.69, -181587.78, -0.10, 0.63, 0.81
67, -181276.48, -181318.86, -181351.20, -181259.50, -153271.34, -85063.30, -181729.06, -181564.33, -0.10, 0.63, 0.81
68, -181155.05, -181320.14, -181344.39, -181145.91, -153308.75, -85084.05, -181727.08, -181558.03, -0.10, 0.63, 0.81
69, -181304.22, -181294.80, -181311.36, -181302.14, -153416.09, -85179.34, -181656.13, -181566.91, -0.10, 0.62, 0.81
70, -181553.72, -181290.97, -181313.61, -181388.67, -153606.14, -85359.19, -181650.70, -181567.02, -0.10, 0.62, 0.81
71, -181536.34, -181309.03, -181333.02, -181277.48, -153714.38, -85452.15, -181707.03, -181555.92, -0.10, 0.62, 0.81
72, -181419.98, -181308.34, -181324.81, -181129.83, -153754.77, -85477.05, -181708.80, -181543.77, -0.10, 0.62, 0.81
73, -181354.83, -181267.23, -181290.88, -181260.66, -153866.16, -85576.51, -181636.33, -181555.03, -0.10, 0.62, 0.81
74, -181361.69, -181277.16, -181295.84, -181366.73, -154070.25, -85767.13, -181636.48, -181563.70, -0.10, 0.62, 0.82
75, -181314.48, -181285.31, -181318.16, -181286.09, -154204.86, -85886.62, -181678.84, -181547.14, -0.10, 0.62, 0.82
76, -181156.84, -181287.14, -181315.80, -181115.28, -154248.28, -85912.44, -181706.33, -181537.36, -0.10, 0.62, 0.82
77, -181172.66, -181283.08, -181296.52, -181185.69, -154323.30, -85973.92, -181658.23, -181532.08, -0.10, 0.62, 0.82
78, -181426.36, -181270.45, -181284.52, -181327.00, -154487.92, -86130.37, -181623.55, -181565.83, -0.10, 0.62, 0.82
79, -181535.61, -181277.52, -181303.42, -181274.77, -154636.52, -86266.47, -181651.14, -181548.69, -0.09, 0.63, 0.82
80, -181426.11, -181287.81, -181311.95, -181110.86, -154679.34, -86290.49, -181696.86, -181525.58, -0.09, 0.63, 0.82
81, -181331.41, -181258.66, -181276.08, -181188.78, -154753.19, -86349.91, -181641.13, -181519.77, -0.09, 0.63, 0.82
82, -181321.56, -181251.19, -181261.64, -181328.55, -154935.63, -86521.34, -181609.84, -181526.88, -0.09, 0.63, 0.82
83, -181308.58, -181264.08, -181285.25, -181303.13, -155110.64, -86681.49, -181634.52, -181521.17, -0.09, 0.63, 0.82
84, -181168.38, -181259.88, -181295.31, -181132.98, -155166.97, -86721.86, -181675.53, -181512.56, -0.09, 0.63, 0.82
85, -181116.22, -181253.28, -181274.81, -181108.72, -155214.02, -86758.05, -181645.77, -181497.45, -0.09, 0.63, 0.81
86, -181332.16, -181228.98, -181248.02, -181279.61, -155350.70, -86888.65, -181590.02, -181504.03, -0.09, 0.63, 0.81
87, -181516.61, -181238.91, -181264.58, -181290.13, -155520.95, -87052.76, -181609.11, -181532.39, -0.09, 0.63, 0.81
88, -181438.02, -181262.73, -181280.83, -181129.56, -155585.97, -87104.12, -181666.45, -181501.48, -0.09, 0.63, 0.81
89, -181325.86, -181241.42, -181261.83, -181086.42, -155632.52, -87135.26, -181636.89, -181497.41, -0.09, 0.63, 0.81
90, -181288.44, -181209.75, -181235.45, -181264.80, -155777.95, -87271.24, -181580.97, -181496.63, -0.08, 0.63, 0.82
91, -181294.19, -181229.14, -181250.53, -181303.67, -155974.58, -87459.40, -181598.08, -181496.69, -0.08, 0.63, 0.82
92, -181197.70, -181232.70, -181263.72, -181170.25, -156065.38, -87536.40, -181637.78, -181484.00, -0.08, 0.63, 0.82
93, -181072.23, -181232.97, -181253.84, -181044.00, -156100.16, -87556.01, -181637.69, -181472.17, -0.08, 0.63, 0.82
94, -181211.33, -181215.22, -181226.31, -181189.89, -156198.98, -87643.80, -181580.84, -181484.14, -0.08, 0.63, 0.82
95, -181457.94, -181205.55, -181224.50, -181276.59, -156379.22, -87814.79, -181569.94, -181511.84, -0.07, 0.64, 0.81
96, -181448.42, -181224.98, -181247.19, -181166.45, -156486.75, -87908.02, -181614.27, -181475.39, -0.07, 0.64, 0.81
97, -181329.17, -181226.31, -181242.05, -181036.20, -156521.89, -87926.20, -181631.81, -181458.86, -0.07, 0.64, 0.81
98, -181258.50, -181186.36, -181209.50, -181183.61, -156624.05, -88015.53, -181565.38, -181475.73, -0.07, 0.64, 0.81
99, -181262.41, -181192.73, -181210.44, -181291.63, -156817.06, -88200.92, -181557.33, -181489.50, -0.07, 0.64, 0.81
100, -181212.56, -181201.58, -181233.69, -181215.17, -156950.23, -88322.94, -181596.72, -181466.20, -0.08, 0.64, 0.82
101, -181059.55, -181205.50, -181234.63, -181036.61, -156987.05, -88344.06, -181627.00, -181448.80, -0.08, 0.64, 0.82
102, -181115.11, -181197.25, -181213.19, -181087.08, -157051.08, -88398.17, -181571.47, -181442.88, -0.08, 0.64, 0.82
103, -181368.58, -181175.34, -181200.89, -181262.61, -157212.31, -88551.95, -181534.63, -181433.55, -0.08, 0.64, 0.82
104, -181444.09, -181193.72, -181218.22, -181220.98, -157351.11, -88679.70, -181570.97, -181444.28, -0.08, 0.64, 0.82
105, -181334.20, -181206.38, -181222.86, -181043.47, -157390.23, -88705.09, -181609.86, -181432.59, -0.08, 0.63, 0.81
106, -181240.45, -181174.63, -181196.33, -181074.97, -157457.17, -88762.04, -181557.92, -181435.67, -0.08, 0.63, 0.81
107, -181225.45, -181163.03, -181182.14, -181233.23, -157628.08, -88925.36, -181520.64, -181458.70, -0.08, 0.63, 0.81
108, -181212.97, -181175.02, -181201.25, -181217.23, -157799.31, -89087.39, -181544.03, -181446.47, -0.08, 0.63, 0.81
109, -181069.06, -181177.44, -181210.81, -181047.14, -157851.75, -89124.96, -181592.86, -181424.77, -0.08, 0.63, 0.81
110, -181038.06, -181172.02, -181194.70, -181014.88, -157889.83, -89149.98, -181570.83, -181422.47, -0.08, 0.64, 0.81
111, -181256.59, -181144.75, -181162.14, -181191.84, -158018.36, -89269.83, -181506.06, -181442.09, -0.08, 0.64, 0.81
112, -181428.70, -181154.16, -181179.66, -181213.39, -158187.97, -89431.59, -181521.89, -181445.28, -0.08, 0.64, 0.81
113, -181349.23, -181183.70, -181197.42, -181056.34, -158251.19, -89483.04, -181580.63, -181413.64, -0.08, 0.64, 0.81
114, -181237.06, -181153.53, -181176.03, -181005.11, -158292.02, -89511.70, -181546.77, -181402.33, -0.08, 0.64, 0.81
115, -181200.17, -181125.92, -181145.53, -181180.42, -158431.08, -89643.12, -181480.31, -181399.95, -0.08, 0.64, 0.81
116, -181204.73, -181146.33, -181163.47, -181218.02, -158620.73, -89825.58, -181507.47, -181410.70, -0.08, 0.63, 0.80
117, -181101.14, -181146.83, -181184.39, -181081.58, -158701.53, -89895.47, -181560.17, -181404.30, -0.08, 0.63, 0.80
118, -180981.98, -181143.31, -181176.28, -180960.98, -158725.25, -89906.89, -181559.55, -181395.91, -0.08, 0.63, 0.80
119, -181124.38, -181130.81, -181147.52, -181108.20, -158815.55, -89986.58, -181497.81, -181404.09, -0.08, 0.63, 0.80
120, -181371.91, -181120.69, -181143.02, -181194.59, -158989.63, -90154.75, -181481.23, -181402.38, -0.08, 0.63, 0.80
121, -181361.31, -181138.91, -181165.00, -181084.28, -159090.09, -90244.70, -181530.30, -181387.55, -0.07, 0.63, 0.81
122, -181241.73, -181141.02, -181160.23, -180951.16, -159117.39, -90258.95, -181541.95, -181378.72, -0.07, 0.63, 0.81
123, -181172.27, -181104.28, -181125.75, -181092.98, -159212.98, -90346.28, -181471.23, -181379.69, -0.07, 0.63, 0.81
124, -181176.89, -181112.84, -181127.20, -181194.44, -159401.61, -90528.85, -181466.78, -181386.39, -0.07, 0.63, 0.81
125, -181122.08, -181119.94, -181149.78, -181112.64, -159526.23, -90642.84, -181514.17, -181380.02, -0.07, 0.63, 0.81
126, -180967.47, -181115.53, -181152.14, -180941.83, -159551.81, -90654.60, -181542.84, -181368.58, -0.07, 0.64, 0.80
127, -181028.38, -181110.61, -181128.34, -181017.19, -159605.95, -90700.02, -181491.59, -181368.33, -0.07, 0.64, 0.80
128, -181280.05, -181093.56, -181111.38, -181166.41, -159758.34, -90845.82, -181449.42, -181390.34, -0.07, 0.64, 0.80
129, -181370.45, -181101.52, -181129.25, -181123.16, -159902.50, -90980.54, -181478.33, -181367.56, -0.07, 0.64, 0.80
130, -181262.05, -181117.20, -181134.75, -180950.22, -159938.94, -91006.27, -181529.16, -181347.09, -0.07, 0.64, 0.80
131, -181165.47, -181091.08, -181110.61, -180991.20, -159997.14, -91057.16, -181474.97, -181352.69, -0.07, 0.65, 0.81
132, -181150.69, -181079.67, -181096.42, -181155.34, -160161.69, -91216.39, -181440.38, -181359.19, -0.07, 0.65, 0.81
133, -181136.14, -181092.55, -181115.48, -181139.84, -160325.81, -91373.68, -181469.06, -181349.94, -0.07, 0.65, 0.81
134, -180990.88, -181093.61, -181125.44, -180966.78, -160371.17, -91406.83, -181511.06, -181340.30, -0.07, 0.65, 0.81
135, -180951.31, -181088.03, -181107.59, -180917.88, -160400.97, -91428.73, -181483.86, -181332.80, -0.07, 0.65, 0.81
136, -181156.13, -181066.20, -181084.89, -181097.69, -160514.28, -91540.02, -181425.69, -181354.94, -0.07, 0.64, 0.83
137, -181348.14, -181066.47, -181095.09, -181131.95, -160676.78, -91697.34, -181434.67, -181359.83, -0.07, 0.64, 0.83
138, -181276.34, -181090.55, -181111.80, -180976.41, -160737.00, -91745.13, -181492.45, -181332.03, -0.07, 0.64, 0.83
139, -181163.20, -181074.00, -181092.55, -180900.17, -160772.30, -91768.81, -181463.39, -181326.94, -0.07, 0.64, 0.83
140, -181122.13, -181038.16, -181058.25, -181081.91, -160902.20, -91893.02, -181396.20, -181328.77, -0.07, 0.64, 0.83
141, -181126.50, -181057.66, -181076.75, -181138.70, -161086.58, -92072.48, -181419.78, -181327.77, -0.07, 0.64, 0.83
142, -181022.95, -181069.89, -181099.39, -181004.83, -161166.11, -92141.15, -181481.88, -181312.86, -0.07, 0.64, 0.83
143, -180909.56, -181066.58, -181087.92, -180875.16, -161184.95, -92147.05, -181475.91, -181306.42, -0.07, 0.64, 0.83
144, -181059.25, -181037.70, -181056.75, -181016.52, -161269.69, -92224.44, -181403.11, -181300.25, -0.07, 0.64, 0.83
145, -181295.22, -181032.11, -181055.83, -181099.77, -161437.91, -92387.06, -181395.28, -181336.28, -0.07, 0.64, 0.83
146, -181278.05, -181053.02, -181079.33, -180990.45, -161538.80, -92478.38, -181454.39, -181312.52, -0.07, 0.64, 0.83
147, -181156.91, -181058.31, -181078.72, -180864.92, -161562.53, -92490.73, -181466.91, -181292.53, -0.07, 0.64, 0.81
148, -181084.55, -181017.88, -181043.53, -181008.42, -161654.05, -92573.39, -181394.97, -181307.33, -0.07, 0.64, 0.81
149, -181087.59, -181021.27, -181044.00, -181106.67, -161841.11, -92753.16, -181389.41, -181314.53, -0.07, 0.64, 0.81
150, -181034.39, -181034.42, -181066.98, -181028.81, -161967.23, -92870.13, -181428.95, -181295.17, -0.07, 0.64, 0.81
151, -180882.92, -181037.39, -181066.69, -180854.69, -161987.38, -92880.81, -181460.44, -181280.00, -0.07, 0.64, 0.81
152, -180944.77, -181031.69, -181048.09, -180919.48, -162035.44, -92921.20, -181412.39, -181272.91, -0.09, 0.63, 0.82
153, -181190.14, -181015.02, -181033.88, -181069.73, -162180.70, -93059.00, -181369.56, -181310.53, -0.09, 0.63, 0.82
154, -181287.73, -181021.34, -181047.25, -181026.95, -162322.03, -93190.27, -181397.44, -181296.98, -0.09, 0.63, 0.82
155, -181179.70, -181037.03, -181055.03, -180862.98, -162355.48, -93210.55, -181446.92, -181270.81, -0.09, 0.63, 0.82
156, -181083.41, -181001.11, -181026.61, -180928.09, -162410.73, -93256.84, -181383.30, -181272.59, -0.09, 0.63, 0.82
157, -181069.95, -180987.59, -181015.44, -181066.02, -162573.75, -93415.78, -181347.14, -181281.02, -0.10, 0.62, 0.83
158, -181059.09, -181004.36, -181031.33, -181043.95, -162738.78, -93573.88, -181378.28, -181269.17, -0.10, 0.62, 0.83
159, -180915.53, -181006.30, -181039.95, -180875.20, -162784.75, -93605.52, -181425.61, -181252.22, -0.10, 0.62, 0.83
160, -180866.08, -180997.06, -181023.20, -180853.02, -162809.92, -93620.21, -181398.97, -181244.97, -0.10, 0.62, 0.83
161, -181081.47, -180972.34, -180991.48, -181016.41, -162928.39, -93734.85, -181334.41, -181237.58, -0.10, 0.62, 0.83
162, -181262.81, -180982.27, -181009.61, -181028.27, -163090.89, -93893.02, -181352.53, -181247.88, -0.10, 0.62, 0.82
163, -181184.75, -181005.97, -181027.42, -180869.89, -163147.14, -93938.19, -181407.80, -181239.94, -0.10, 0.62, 0.82
164, -181071.25, -180985.42, -181006.34, -180828.33, -163180.06, -93958.52, -181381.06, -181229.59, -0.10, 0.62, 0.82
165, -181025.97, -180953.09, -180977.58, -180999.80, -163303.56, -94076.12, -181329.14, -181241.84, -0.10, 0.62, 0.82
166, -181029.31, -180969.91, -180989.88, -181039.22, -163486.55, -94252.36, -181338.11, -181245.50, -0.10, 0.62, 0.82
167, -180925.77, -180974.02, -181009.69, -180905.61, -163565.61, -94319.95, -181382.03, -181230.27, -0.09, 0.63, 0.81
168, -180813.20, -180969.03, -181002.25, -180784.48, -163576.94, -94320.98, -181389.34, -181217.80, -0.09, 0.63, 0.81
169, -180957.53, -180951.61, -180970.28, -180932.20, -163652.97, -94393.83, -181314.11, -181209.59, -0.09, 0.63, 0.81
170, -181200.80, -180939.52, -180967.19, -181019.80, -163814.80, -94554.67, -181301.08, -181245.81, -0.09, 0.63, 0.81
171, -181194.56, -180969.63, -180992.69, -180913.72, -163913.50, -94644.62, -181357.59, -181224.16, -0.09, 0.63, 0.81
172, -181073.23, -180971.55, -180990.20, -180775.89, -163932.81, -94651.41, -181379.86, -181206.02, -0.08, 0.63, 0.81
173, -180996.75, -180934.44, -180956.34, -180911.17, -164012.94, -94725.04, -181313.20, -181205.52, -0.08, 0.63, 0.81
174, -180996.31, -180937.70, -180953.39, -181024.00, -164188.58, -94898.84, -181300.05, -181208.92, -0.08, 0.63, 0.81
175, -180940.66, -180947.58, -180976.06, -180947.69, -164308.50, -95013.95, -181336.77, -181198.88, -0.08, 0.63, 0.81
176, -180790.97, -180945.70, -180982.41, -180771.89, -164319.61, -95016.59, -181374.16, -181191.02, -0.08, 0.63, 0.81
177, -180862.52, -180934.33, -180955.14, -180837.66, -164358.83, -95050.48, -181315.36, -181184.27, -0.08, 0.63, 0.81
178, -181112.38, -180914.23, -180933.00, -180983.75, -164500.25, -95188.43, -181271.97, -181199.95, -0.06, 0.65, 0.82
179, -181193.67, -180930.08, -180956.52, -180939.09, -164633.53, -95316.87, -181309.16, -181206.86, -0.06, 0.65, 0.82
180, -181085.13, -180945.39, -180958.64, -180766.47, -164662.86, -95336.02, -181349.78, -181182.23, -0.06, 0.65, 0.82
181, -180985.48, -180917.63, -180938.23, -180807.02, -164708.75, -95374.82, -181297.36, -181167.59, -0.06, 0.65, 0.82
182, -180965.34, -180902.11, -180918.44, -180972.19, -164859.08, -95522.50, -181256.41, -181162.27, -0.06, 0.65, 0.82
183, -180950.28, -180914.88, -180938.86, -180957.44, -165013.25, -95672.33, -181281.88, -181170.56, -0.06, 0.64, 0.82
184, -180806.89, -180910.70, -180944.52, -180786.17, -165049.55, -95700.69, -181326.05, -181157.06, -0.06, 0.64, 0.82
185, -180748.69, -180905.05, -180932.72, -180752.56, -165066.02, -95710.63, -181312.52, -181151.27, -0.06, 0.64, 0.82
186, -180942.30, -180892.86, -180911.95, -180914.08, -165168.75, -95811.53, -181249.02, -181168.39, -0.06, 0.64, 0.82
187, -181155.41, -180891.00, -180916.16, -180932.61, -165325.56, -95966.77, -181254.22, -181164.59, -0.06, 0.64, 0.82
188, -181094.52, -180915.28, -180931.80, -180779.27, -165379.91, -96013.62, -181316.16, -181146.78, -0.06, 0.64, 0.82
189, -180975.70, -180900.28, -180919.69, -180729.36, -165397.45, -96024.21, -181294.75, -181141.34, -0.06, 0.64, 0.82
190, -180925.27, -180866.72, -180893.64, -180906.56, -165505.61, -96130.80, -181232.13, -181150.53, -0.06, 0.64, 0.82
191, -180925.67, -180880.86, -180903.81, -180957.84, -165677.22, -96301.73, -181243.58, -181152.03, -0.06, 0.64, 0.82
192, -180810.66, -180886.22, -180918.83, -180822.70, -165745.31, -96364.13, -181297.05, -181141.61, -0.06, 0.64, 0.82
193, -180731.08, -180880.14, -180909.36, -180696.80, -165744.11, -96358.32, -181299.52, -181125.91, -0.06, 0.65, 0.81
194, -180886.97, -180864.20, -180883.78, -180836.45, -165807.33, -96421.13, -181238.17, -181132.41, -0.06, 0.65, 0.81
195, -181118.03, -180856.19, -180880.55, -180920.59, -165959.58, -96574.11, -181225.28, -181163.28, -0.06, 0.65, 0.81
196, -181104.91, -180881.48, -180900.55, -180817.47, -166053.81, -96664.43, -181267.59, -181131.52, -0.06, 0.65, 0.81
197, -180982.61, -180880.69, -180897.28, -180683.09, -166063.44, -96668.30, -181285.63, -181112.38, -0.06, 0.65, 0.81
198, -180904.98, -180836.14, -180862.78, -180822.45, -166134.72, -96736.00, -181208.63, -181106.64, -0.05, 0.64, 0.80
199, -180902.81, -180838.89, -180863.53, -180934.23, -166301.20, -96901.94, -181198.92, -181107.63, -0.05, 0.64, 0.80
200, -180841.14, -180854.70, -180886.73, -180854.80, -166411.77, -97007.93, -181250.33, -181112.63, -0.05, 0.64, 0.80
201, -180696.13, -180856.92, -180884.64, -180673.19, -166415.73, -97005.80, -181282.44, -181100.31, -0.05, 0.64, 0.80
202, -180766.73, -180848.00, -180869.33, -180725.61, -166441.61, -97031.42, -181239.52, -181101.53, -0.05, 0.64, 0.80
203, -181007.17, -180834.08, -180848.78, -180888.33, -166564.13, -97159.99, -181190.52, -181128.20, -0.05, 0.64, 0.80
204, -181106.97, -180842.86, -180865.59, -180857.59, -166691.86, -97290.44, -181215.22, -181115.44, -0.05, 0.64, 0.80
205, -181001.47, -180852.41, -180872.86, -180682.42, -166712.16, -97306.05, -181266.20, -181087.75, -0.05, 0.64, 0.80
206, -180898.39, -180827.17, -180850.23, -180709.31, -166746.13, -97337.95, -181211.42, -181079.02, -0.05, 0.64, 0.80
207, -180868.50, -180802.41, -180825.36, -180888.53, -166878.83, -97471.20, -181164.92, -181109.83, -0.05, 0.64, 0.80
208, -180850.44, -180817.16, -180846.64, -180885.11, -167026.83, -97618.70, -181192.59, -181109.89, -0.05, 0.64, 0.80
209, -180705.75, -180821.72, -180865.44, -180711.83, -167055.88, -97646.14, -181246.92, -181078.72, -0.07, 0.64, 0.80
210, -180690.02, -180813.30, -180848.34, -180658.23, -167061.73, -97650.09, -181222.22, -181067.08, -0.07, 0.64, 0.80
211, -180902.27, -180800.17, -180821.42, -180822.03, -167160.48, -97748.34, -181151.30, -181060.81, -0.07, 0.64, 0.80
212, -181074.66, -180799.45, -180825.94, -180844.58, -167310.48, -97898.80, -181167.50, -181090.97, -0.07, 0.64, 0.80
213, -180997.30, -180825.70, -180846.66, -180690.05, -167357.77, -97941.81, -181237.86, -181069.98, -0.07, 0.64, 0.80
214, -180876.14, -180806.03, -180828.72, -180644.36, -167367.58, -97945.77, -181205.67, -181060.19, -0.07, 0.64, 0.81
215, -180826.20, -180770.11, -180799.95, -180818.92, -167471.06, -98048.07, -181141.91, -181047.77, -0.07, 0.64, 0.81
216, -180824.59, -180785.63, -180811.34, -180862.58, -167634.41, -98213.78, -181154.17, -181052.30, -0.07, 0.64, 0.81
217, -180709.73, -180792.92, -180830.30, -180726.00, -167697.41, -98274.11, -181203.89, -181053.39, -0.07, 0.64, 0.81
218, -180634.67, -180782.53, -180822.44, -180601.39, -167689.73, -98261.48, -181216.05, -181038.02, -0.07, 0.64, 0.81
219, -180786.77, -180774.28, -180799.55, -180745.13, -167746.06, -98316.07, -181145.84, -181036.16, -0.08, 0.64, 0.81
220, -181019.64, -180767.98, -180793.20, -180858.17, -167898.16, -98467.61, -181127.98, -181036.36, -0.08, 0.64, 0.81
221, -181003.27, -180791.20, -180815.06, -180755.73, -167983.84, -98549.77, -181182.66, -181040.03, -0.08, 0.64, 0.81
222, -180884.44, -180788.91, -180805.25, -180592.72, -167990.50, -98551.23, -181191.91, -181030.38, -0.08, 0.64, 0.81
223, -180803.95, -180748.77, -180778.91, -180704.70, -168051.72, -98612.18, -181130.23, -181026.95, -0.08, 0.64, 0.81
224, -180794.36, -180747.11, -180769.69, -180836.58, -168205.31, -98767.15, -181111.73, -181058.38, -0.07, 0.64, 0.82
225, -180737.08, -180761.33, -180795.52, -180766.84, -168316.77, -98877.95, -181149.80, -181037.36, -0.07, 0.64, 0.82
226, -180603.20, -180762.17, -180797.28, -180589.81, -168316.98, -98872.58, -181192.67, -181014.17, -0.07, 0.64, 0.82
227, -180687.63, -180751.33, -180777.02, -180647.84, -168340.58, -98892.63, -181143.61, -181008.38, -0.07, 0.64, 0.82
228, -180927.02, -180738.25, -180762.19, -180803.45, -168465.00, -99016.75, -181102.61, -181037.30, -0.07, 0.64, 0.82
229, -181006.09, -180745.91, -180774.83, -180770.23, -168593.64, -99144.22, -181122.19, -181026.91, -0.08, 0.64, 0.82
230, -180898.63, -180763.58, -180778.58, -180593.19, -168611.56, -99156.00, -181169.11, -180997.84, -0.08, 0.64, 0.82
231, -180794.92, -180728.83, -180752.25, -180617.64, -168642.23, -99181.48, -181113.72, -180986.25, -0.08, 0.64, 0.82
232, -180770.59, -180713.00, -180736.78, -180782.00, -168777.59, -99317.34, -181067.92, -180978.17, -0.08, 0.64, 0.82
233, -180753.66, -180728.91, -180753.92, -180770.47, -168923.17, -99464.30, -181103.13, -181002.16, -0.08, 0.64, 0.82
234, -180605.02, -180735.66, -180765.41, -180594.53, -168946.23, -99483.14, -181158.73, -180986.61, -0.09, 0.63, 0.81
235, -180587.81, -180721.38, -180749.72, -180551.84, -168941.05, -99475.98, -181134.95, -180979.20, -0.09, 0.63, 0.81
236, -180793.58, -180708.13, -180727.55, -180727.34, -169033.31, -99566.94, -181064.55, -180975.45, -0.09, 0.63, 0.81
237, -180990.73, -180711.13, -180737.05, -180769.44, -169185.41, -99718.26, -181076.30, -180975.30, -0.09, 0.63, 0.81
238, -180919.47, -180733.56, -180749.86, -180611.28, -169229.00, -99756.08, -181136.66, -180976.38, -0.09, 0.63, 0.81
239, -180796.48, -180717.84, -180736.09, -180530.55, -169232.36, -99754.11, -181119.13, -180965.66, -0.09, 0.63, 0.81
240, -180736.89, -180683.30, -180712.44, -180702.11, -169322.44, -99844.55, -181053.61, -180976.72, -0.08, 0.63, 0.81
241, -180737.11, -180693.98, -180718.59, -180769.34, -169486.33, -100009.52, -181059.27, -181003.06, -0.08, 0.63, 0.81
242, -180632.91, -180699.50, -180735.39, -180640.17, -169555.41, -100073.90, -181103.66, -180964.91, -0.08, 0.63, 0.81
243, -180539.64, -180688.95, -180730.33, -180510.72, -169540.34, -100052.66, -181119.84, -180945.09, -0.08, 0.63, 0.81
244, -180689.44, -180678.17, -180699.03, -180653.03, -169592.38, -100104.01, -181056.28, -180939.59, -0.08, 0.63, 0.81
245, -180931.08, -180672.97, -180695.42, -180763.98, -169743.77, -100256.17, -181036.81, -180938.89, -0.08, 0.63, 0.80
246, -180918.88, -180700.89, -180725.22, -180659.59, -169827.61, -100336.53, -181093.64, -180946.69, -0.08, 0.63, 0.80
247, -180789.89, -180698.88, -180714.39, -180496.28, -169822.89, -100325.16, -181111.42, -180932.72, -0.08, 0.63, 0.80
248, -180705.02, -180660.31, -180681.59, -180613.64, -169876.63, -100376.79, -181034.66, -180927.17, -0.08, 0.63, 0.80
249, -180703.52, -180662.89, -180683.14, -180745.52, -170033.78, -100537.16, -181020.56, -180924.84, -0.08, 0.63, 0.80
250, -180648.36, -180672.14, -180704.13, -180674.36, -170142.70, -100642.62, -181063.98, -180930.03, -0.07, 0.63, 0.79
251, -180502.28, -180661.95, -180705.67, -180490.36, -170131.39, -100624.58, -181098.30, -180917.89, -0.07, 0.63, 0.79
252, -180573.88, -180650.34, -180684.50, -180546.81, -170144.25, -100636.65, -181056.14, -180914.52, -0.07, 0.63, 0.79
253, -180819.89, -180642.92, -180665.02, -180713.09, -170267.69, -100762.17, -180999.61, -180927.17, -0.07, 0.63, 0.79
254, -180925.88, -180652.20, -180684.55, -180686.84, -170398.50, -100891.32, -181035.09, -180913.77, -0.07, 0.63, 0.79
255, -180810.50, -180661.75, -180689.78, -180499.98, -170399.91, -100888.66, -181082.81, -180903.64, -0.08, 0.64, 0.80
0, -180692.95, -180643.70, -180668.09, -180512.02, -170406.75, -100895.30, -181043.61, -180894.38, -0.08, 0.64, 0.80
1, -180664.66, -180625.31, -180646.19, -180694.11, -170529.03, -101021.99, -180992.33, -180901.30, -0.08, 0.64, 0.80
2, -180657.55, -180642.56, -180663.17, -180708.23, -170683.22, -101177.20, -181016.89, -180902.20, -0.08, 0.64, 0.80
3, -180512.25, -180633.97, -180675.58, -180530.42, -170702.80, -101190.81, -181059.42, -180883.98, -0.08, 0.64, 0.80
4, -180498.95, -180617.47, -180660.63, -180450.03, -170686.08, -101170.72, -181047.16, -180874.92, -0.08, 0.65, 0.81
5, -180695.66, -180619.17, -180633.77, -180621.20, -170761.44, -101250.98, -180982.89, -180896.59, -0.08, 0.65, 0.81
6, -180892.38, -180620.50, -180639.58, -180679.56, -170907.56, -101403.06, -180981.78, -180923.73, -0.08, 0.65, 0.81
7, -180827.27, -180634.13, -180655.80, -180526.11, -170949.44, -101441.69, -181026.69, -180877.00, -0.08, 0.65, 0.81
8, -180694.06, -180622.81, -180644.64, -180426.41, -170931.86, -101418.18, -181031.13, -180867.66, -0.08, 0.65, 0.81
9, -180628.84, -180592.92, -180614.19, -180600.72, -171007.52, -101494.77, -180969.42, -180876.61, -0.09, 0.64, 0.81
10, -180634.52, -180605.67, -180624.03, -180698.67, -171169.27, -101661.38, -180970.33, -180890.77, -0.09, 0.64, 0.81
11, -180529.88, -180605.27, -180647.50, -180573.52, -171230.42, -101722.74, -181014.52, -180865.03, -0.09, 0.64, 0.81
12, -180439.06, -180589.39, -180639.14, -180404.98, -171198.58, -101691.47, -181030.39, -180850.69, -0.09, 0.64, 0.81
13, -180574.34, -180586.06, -180613.25, -180519.28, -171230.72, -101728.77, -180969.86, -180847.25, -0.09, 0.64, 0.81
14, -180826.08, -180585.14, -180614.31, -180647.11, -171370.34, -101874.40, -180946.95, -180847.38, -0.09, 0.64, 0.81
15, -180839.84, -180602.22, -180624.80, -180549.86, -171449.00, -101955.27, -180987.48, -180851.67, -0.08, 0.64, 0.83
16, -180704.33, -180599.19, -180617.83, -180391.78, -171420.97, -101927.10, -181010.56, -180835.33, -0.08, 0.64, 0.83
17, -180607.67, -180570.27, -180595.89, -180507.97, -171450.38, -101959.65, -180959.77, -180841.61, -0.08, 0.64, 0.83
18, -180597.75, -180567.48, -180592.81, -180638.23, -171592.56, -102107.91, -180935.67, -180884.38, -0.08, 0.64, 0.83
19, -180551.95, -180572.81, -180605.89, -180578.13, -171703.50, -102221.25, -180956.50, -180858.94, -0.08, 0.64, 0.83
20, -180410.44, -180560.17, -180609.78, -180393.77, -171683.78, -102200.91, -180992.59, -180821.53, -0.08, 0.64, 0.83
21, -180472.31, -180547.39, -180590.73, -180435.08, -171673.14, -102195.91, -180969.48, -180820.48, -0.08, 0.64, 0.83
22, -180708.17, -180551.03, -180572.55, -180609.00, -171774.09, -102306.39, -180911.77, -180834.88, -0.08, 0.64, 0.83
23, -180827.19, -180554.91, -180585.91, -180595.03, -171894.20, -102432.23, -180936.16, -180823.13, -0.08, 0.64, 0.83
24, -180712.91, -180563.53, -180597.73, -180406.16, -171884.33, -102422.44, -180982.36, -180808.17, -0.08, 0.64, 0.83
25, -180590.83, -180548.38, -180573.44, -180410.63, -171873.95, -102416.52, -180951.63, -180807.17, -0.08, 0.63, 0.82
26, -180556.58, -180532.39, -180544.95, -180587.58, -171980.47, -102531.59, -180895.33, -180814.52, -0.08, 0.63, 0.82
27, -180545.06, -180544.95, -180566.45, -180597.86, -172119.83, -102679.71, -180916.63, -180812.86, -0.08, 0.63, 0.82
28, -180404.23, -180538.45, -180579.48, -180418.56, -172127.97, -102688.63, -180960.88, -180795.86, -0.08, 0.63, 0.82
29, -180401.08, -180521.83, -180563.91, -180345.36, -172095.63, -102659.03, -180951.64, -180778.88, -0.08, 0.63, 0.82
30, -180585.64, -180523.77, -180538.66, -180510.25, -172153.08, -102726.73, -180891.91, -180797.98, -0.08, 0.63, 0.82
31, -180788.80, -180521.09, -180541.83, -180565.86, -172283.59, -102869.81, -180883.86, -180812.27, -0.08, 0.63, 0.82
32, -180726.72, -180535.75, -180562.44, -180410.00, -172309.45, -102901.82, -180936.42, -180777.53, -0.08, 0.63, 0.82
33, -180592.88, -180524.58, -180550.69, -180337.52, -172276.88, -102873.61, -180937.64, -180768.44, -0.08, 0.63, 0.82
34, -180524.33, -180496.56, -180520.75, -180500.28, -172335.61, -102940.09, -180867.50, -180782.95, -0.08, 0.63, 0.82
35, -180525.25, -180503.05, -180528.27, -180566.95, -172479.33, -103096.13, -180866.05, -180786.80, -0.08, 0.64, 0.82
36, -180426.06, -180497.84, -180541.03, -180439.80, -172531.20, -103155.53, -180913.83, -180762.19, -0.08, 0.64, 0.82
37, -180328.28, -180484.16, -180533.09, -180304.08, -172485.97, -103114.43, -180927.78, -180750.17, -0.08, 0.64, 0.82
38, -180453.27, -180481.86, -180509.89, -180430.14, -172499.00, -103136.89, -180866.28, -180745.34, -0.08, 0.64, 0.82
39, -180695.98, -180477.13, -180503.20, -180541.16, -172612.77, -103263.13, -180835.27, -180774.47, -0.08, 0.64, 0.82
40, -180721.38, -180497.08, -180519.77, -180442.59, -172681.33, -103339.53, -180884.30, -180753.67, -0.09, 0.64, 0.81
41, -180593.06, -180499.77, -180517.91, -180291.80, -172647.84, -103311.52, -180910.81, -180726.66, -0.09, 0.64, 0.81
42, -180492.36, -180467.13, -180493.95, -180404.25, -172659.95, -103333.43, -180857.38, -180741.41, -0.09, 0.64, 0.81
43, -180476.05, -180453.63, -180478.17, -180539.19, -172782.02, -103468.14, -180819.23, -180764.92, -0.09, 0.64, 0.81
44, -180422.02, -180460.95, -180500.48, -180479.25, -172878.13, -103573.76, -180851.11, -180743.83, -0.09, 0.64, 0.81
45, -180298.42, -180453.77, -180506.72, -180290.75, -172849.72, -103550.22, -180890.34, -180721.09, -0.09, 0.64, 0.81
46, -180371.27, -180443.33, -180488.30, -180316.77, -172828.22, -103540.30, -180863.56, -180714.83, -0.09, 0.64, 0.81
47, -180592.09, -180451.45, -180466.13, -180479.78, -172904.86, -103632.01, -180809.16, -180721.42, -0.09, 0.64, 0.81
48, -180711.92, -180451.39, -180478.58, -180452.98, -173000.02, -103739.83, -180829.97, -180732.48, -0.09, 0.64, 0.81
49, -180608.69, -180470.23, -180488.00, -180278.08, -172987.23, -103733.73, -180884.45, -180707.13, -0.09, 0.64, 0.81
50, -180489.38, -180448.78, -180472.92, -180300.66, -172969.17, -103724.18, -180848.41, -180704.81, -0.09, 0.64, 0.81
51, -180441.56, -180416.17, -180456.25, -180479.36, -173053.06, -103820.07, -180791.00, -180714.20, -0.08, 0.65, 0.80
52, -180418.00, -180424.27, -180463.70, -180489.92, -173172.77, -103953.91, -180808.42, -180705.02, -0.08, 0.65, 0.80
53, -180286.44, -180431.08, -180478.50, -180316.83, -173174.69, -103964.91, -180860.98, -180689.00, -0.08, 0.65, 0.80
54, -180300.00, -180418.16, -180466.22, -180250.56, -173131.28, -103931.95, -180852.25, -180681.39, -0.08, 0.65, 0.80
55, -180473.05, -180423.09, -180436.89, -180410.73, -173165.28, -103982.46, -180786.25, -180689.64, -0.08, 0.65, 0.80
56, -180668.00, -180410.13, -180432.91, -180457.42, -173266.20, -104101.15, -180773.95, -180711.66, -0.08, 0.66, 0.82
57, -180620.47, -180434.16, -180448.06, -180308.16, -173291.23, -104135.48, -180842.89, -180674.94, -0.08, 0.66, 0.82
58, -180500.19, -180427.13, -180440.78, -180222.69, -173261.69, -104114.38, -180829.86, -180660.88, -0.08, 0.66, 0.82
59, -180426.67, -180390.64, -180414.42, -180382.91, -173305.25, -104173.68, -180750.08, -180656.89, -0.08, 0.66, 0.82
60, -180404.88, -180382.13, -180411.81, -180451.53, -173420.56, -104307.56, -180746.84, -180685.19, -0.08, 0.66, 0.82
61, -180297.77, -180395.22, -180438.30, -180322.64, -173462.31, -104359.93, -180811.61, -180664.09, -0.07, 0.65, 0.82
62, -180251.77, -180387.98, -180436.66, -180199.95, -173415.05, -104322.31, -180828.22, -180651.23, -0.07, 0.65, 0.82
63, -180378.34, -180383.11, -180412.25, -180320.28, -173414.03, -104337.02, -180774.28, -180646.61, -0.07, 0.65, 0.82
64, -180602.41, -180371.08, -180390.89, -180418.22, -173501.52, -104444.27, -180725.16, -180640.33, -0.07, 0.65, 0.82
65, -180624.23, -180388.94, -180412.36, -180316.33, -173555.91, -104513.11, -180778.56, -180635.89, -0.07, 0.65, 0.82
66, -180509.39, -180396.39, -180415.31, -180192.30, -173526.44, -104492.13, -180798.83, -180626.34, -0.07, 0.65, 0.83
67, -180414.94, -180360.75, -180387.83, -180312.03, -173533.73, -104513.65, -180742.44, -180621.94, -0.07, 0.65, 0.83
68, -180380.38, -180337.09, -180374.95, -180396.70, -173628.81, -104629.05, -180701.59, -180654.30, -0.07, 0.65, 0.83
69, -180314.13, -180350.23, -180390.89, -180314.33, -173705.77, -104721.12, -180748.78, -180641.92, -0.07, 0.65, 0.83
70, -180202.03, -180356.75, -180406.78, -180167.91, -173678.70, -104702.16, -180796.86, -180619.39, -0.07, 0.65, 0.83
71, -180280.14, -180347.48, -180387.78, -180236.58, -173649.94, -104690.23, -180760.58, -180612.97, -0.06, 0.67, 0.83
72, -180487.06, -180344.94, -180360.09, -180370.23, -173703.31, -104768.77, -180695.72, -180600.06, -0.06, 0.67, 0.83
73, -180593.14, -180346.30, -180367.47, -180319.73, -173774.66, -104861.28, -180722.44, -180612.69, -0.06, 0.67, 0.83
74, -180505.94, -180365.92, -180379.67, -180167.03, -173766.28, -104864.73, -180771.56, -180600.06, -0.06, 0.67, 0.83
75, -180399.72, -180340.03, -180365.97, -180214.94, -173751.28, -104863.01, -180736.33, -180596.44, -0.06, 0.67, 0.83
76, -180346.86, -180297.56, -180336.64, -180360.67, -173819.88, -104952.30, -180666.78, -180590.28, -0.06, 0.67, 0.83
77, -180297.45, -180309.45, -180349.72, -180330.34, -173911.11, -105064.57, -180695.86, -180585.59, -0.07, 0.66, 0.83
78, -180182.72, -180339.50, -180370.19, -180172.31, -173907.92, -105075.68, -180759.48, -180587.81, -0.07, 0.66, 0.83
79, -180233.23, -180328.91, -180361.92, -180163.66, -173866.48, -105051.56, -180744.83, -180575.47, -0.07, 0.66, 0.83
80, -180402.75, -180317.16, -180334.14, -180314.53, -173882.31, -105091.93, -180682.89, -180578.53, -0.07, 0.66, 0.83
81, -180557.09, -180301.06, -180326.83, -180339.81, -173959.03, -105194.28, -180665.20, -180573.84, -0.07, 0.66, 0.83
82, -180504.81, -180321.55, -180341.11, -180198.03, -173982.75, -105234.45, -180725.16, -180562.95, -0.07, 0.66, 0.82
83, -180402.72, -180314.09, -180337.02, -180132.97, -173962.13, -105229.80, -180714.92, -180559.58, -0.07, 0.66, 0.82
84, -180325.39, -180286.50, -180310.42, -180286.08, -173991.25, -105282.57, -180660.25, -180563.44, -0.07, 0.66, 0.82
85, -180278.86, -180267.78, -180306.69, -180321.23, -174077.38, -105393.81, -180644.92, -180574.47, -0.07, 0.66, 0.82
86, -180171.06, -180293.30, -180327.83, -180192.58, -174113.78, -105446.27, -180702.34, -180555.03, -0.07, 0.66, 0.82
87, -180162.59, -180300.98, -180331.72, -180114.91, -174075.84, -105422.31, -180719.80, -180537.41, -0.07, 0.66, 0.80
88, -180295.02, -180291.78, -180308.72, -180240.11, -174064.31, -105430.70, -180671.63, -180540.52, -0.07, 0.66, 0.80
89, -180488.78, -180267.63, -180290.66, -180305.45, -174123.86, -105516.19, -180625.78, -180560.48, -0.07, 0.66, 0.80
90, -180493.33, -180280.17, -180302.55, -180199.58, -174172.98, -105584.61, -180670.19, -180539.33, -0.07, 0.66, 0.80
91, -180400.44, -180286.28, -180308.08, -180099.13, -174157.30, -105584.83, -180691.67, -180523.17, -0.07, 0.66, 0.80
92, -180311.50, -180261.47, -180286.23, -180221.59, -174162.42, -105612.03, -180640.80, -180528.38, -0.06, 0.66, 0.79
93, -180261.42, -180233.05, -180268.98, -180279.13, -174236.30, -105711.09, -180595.72, -180545.58, -0.06, 0.66, 0.79
94, -180172.69, -180250.19, -180283.39, -180182.66, -174296.97, -105792.97, -180650.95, -180525.22, -0.06, 0.66, 0.79
95, -180117.70, -180272.38, -180303.20, -180068.00, -174266.63, -105780.25, -180694.38, -180514.83, -0.06, 0.66, 0.79
96, -180221.84, -180263.14, -180285.67, -180157.00, -174234.88, -105768.67, -180657.13, -180506.17, -0.06, 0.66, 0.79
97, -180415.20, -180245.00, -180260.38, -180250.72, -174272.28, -105833.25, -180596.86, -180519.28, -0.06, 0.66, 0.78
98, -180474.27, -180234.67, -180257.25, -180180.95, -174335.16, -105922.77, -180610.52, -180507.41, -0.06, 0.66, 0.78
99, -180394.44, -180251.70, -180274.55, -180051.75, -174333.47, -105937.99, -180659.56, -180488.45, -0.06, 0.66, 0.78
100, -180297.03, -180232.86, -180262.05, -180122.55, -174319.30, -105945.48, -180628.16, -180482.53, -0.06, 0.66, 0.78
101, -180231.50, -180198.63, -180236.73, -180251.44, -174365.59, -106019.48, -180565.00, -180482.53, -0.06, 0.66, 0.78
102, -180150.38, -180211.81, -180246.72, -180200.73, -174434.11, -106114.57, -180594.20, -180471.23, -0.04, 0.67, 0.77
103, -180087.80, -180248.28, -180268.98, -180055.97, -174420.02, -106121.32, -180659.98, -180477.56, -0.04, 0.67, 0.77
104, -180181.97, -180236.50, -180257.22, -180083.34, -174372.25, -106096.33, -180637.94, -180473.92, -0.04, 0.67, 0.77
105, -180362.13, -180208.61, -180225.22, -180213.38, -174380.13, -106134.39, -180575.53, -180479.52, -0.04, 0.67, 0.77
106, -180440.33, -180190.30, -180215.94, -180194.73, -174445.91, -106230.35, -180555.78, -180473.48, -0.04, 0.67, 0.77
107, -180375.53, -180214.53, -180237.67, -180061.95, -174461.86, -106268.08, -180621.28, -180460.27, -0.04, 0.67, 0.77
108, -180279.64, -180207.33, -180231.61, -180071.92, -174437.08, -106263.66, -180607.14, -180459.23, -0.04, 0.67, 0.76
109, -180209.30, -180165.48, -180199.73, -180190.55, -174468.56, -106321.50, -180530.16, -180439.53, -0.04, 0.67, 0.76
110, -180131.66, -180174.81, -180204.00, -180146.27, -174537.77, -106419.89, -180547.73, -180443.25, -0.04, 0.67, 0.76
111, -180060.75, -180212.13, -180230.98, -180018.50, -174539.45, -106447.59, -180611.67, -180446.31, -0.04, 0.67, 0.76
112, -180145.08, -180203.28, -180230.38, -180029.92, -174483.44, -106414.66, -180620.69, -180435.75, -0.04, 0.67, 0.76
113, -180311.83, -180181.36, -180198.84, -180159.19, -174468.77, -106428.14, -180551.39, -180433.27, -0.03, 0.68, 0.77
114, -180412.64, -180155.77, -180180.72, -180178.55, -174528.53, -106519.56, -180515.34, -180420.39, -0.03, 0.68, 0.77
115, -180361.78, -180169.52, -180191.91, -180062.16, -174566.72, -106583.44, -180560.38, -180423.67, -0.03, 0.68, 0.77
116, -180272.89, -180180.11, -180203.83, -179983.30, -174545.08, -106583.64, -180590.36, -180421.05, -0.03, 0.68, 0.77
117, -180180.52, -180153.95, -180184.88, -180110.58, -174539.05, -106604.65, -180542.05, -180428.06, -0.03, 0.68, 0.77
118, -180107.06, -180125.70, -180164.22, -180171.23, -174598.95, -106693.95, -180489.95, -180432.11, -0.03, 0.67, 0.79
119, -180022.31, -180165.78, -180182.97, -180062.56, -174639.25, -106759.39, -180550.23, -180410.53, -0.03, 0.67, 0.79
120, -180089.70, -180173.03, -180197.97, -179963.56, -174596.47, -106737.84, -180591.36, -180407.67, -0.03, 0.67, 0.79
121, -180238.34, -180157.00, -180176.33, -180062.67, -174561.38, -106727.84, -180544.73, -180397.73, -0.03, 0.67, 0.79
122, -180373.45, -180132.34, -180149.16, -180146.61, -174601.77, -106796.54, -180485.06, -180395.42, -0.03, 0.67, 0.79
123, -180340.33, -180132.17, -180150.06, -180065.36, -174659.56, -106879.24, -180504.66, -180404.56, -0.04, 0.68, 0.81
124, -180263.42, -180147.80, -180170.80, -179953.91, -174656.22, -106893.50, -180559.67, -180387.53, -0.04, 0.68, 0.81
125, -180166.34, -180130.36, -180157.53, -180042.48, -174638.84, -106893.17, -180530.20, -180385.14, -0.04, 0.68, 0.81
126, -180091.55, -180095.00, -180131.78, -180137.64, -174685.41, -106962.19, -180465.91, -180387.20, -0.04, 0.68, 0.81
127, -179995.48, -180121.30, -180142.69, -180061.67, -174747.30, -107048.16, -180496.61, -180382.22, -0.04, 0.68, 0.81
128, -180033.58, -180142.67, -180163.84, -179932.56, -174727.20, -107044.94, -180557.98, -180373.09, -0.04, 0.68, 0.81
129, -180168.42, -180131.34, -180148.44, -179986.92, -174683.55, -107017.94, -180530.42, -180361.30, -0.04, 0.68, 0.81
130, -180321.59, -180103.59, -180118.36, -180115.64, -174700.92, -107057.27, -180463.75, -180371.28, -0.04, 0.68, 0.81
131, -180310.59, -180087.08, -180112.09, -180094.19, -174774.91, -107152.38, -180449.58, -180363.81, -0.04, 0.68, 0.81
132, -180248.50, -180105.23, -180128.75, -179963.25, -174802.19, -107192.52, -180509.58, -180351.80, -0.04, 0.68, 0.81
133, -180158.73, -180103.53, -180129.28, -179947.39, -174786.44, -107187.83, -180507.11, -180346.61, -0.04, 0.67, 0.83
134, -180078.67, -180066.86, -180099.38, -180088.02, -174816.52, -107234.55, -180436.58, -180336.80, -0.04, 0.67, 0.83
135, -179980.55, -180076.42, -180099.06, -180076.31, -174890.17, -107329.23, -180439.45, -180331.56, -0.04, 0.67, 0.83
136, -179987.80, -180101.64, -180113.56, -179931.73, -174904.00, -107357.80, -180503.89, -180334.00, -0.04, 0.67, 0.83
137, -180115.14, -180097.70, -180121.34, -179891.34, -174866.03, -107328.34, -180515.16, -180330.20, -0.04, 0.67, 0.83
138, -180276.27, -180073.52, -180091.89, -180028.45, -174866.28, -107341.45, -180445.20, -180331.92, -0.04, 0.67, 0.83
139, -180289.52, -180048.50, -180075.95, -180085.50, -174942.36, -107432.25, -180396.88, -180318.20, -0.06, 0.67, 0.82
140, -180234.78, -180060.11, -180083.70, -179979.97, -174999.88, -107499.30, -180453.63, -180322.33, -0.06, 0.67, 0.82
141, -180153.64, -180071.75, -180097.23, -179890.97, -174999.67, -107501.07, -180484.34, -180319.77, -0.06, 0.67, 0.82
142, -180065.11, -180043.20, -180078.61, -180013.98, -175012.86, -107519.98, -180440.02, -180322.00, -0.06, 0.67, 0.82
143, -179980.36, -180021.14, -180058.06, -180061.11, -175088.22, -107607.30, -180392.97, -180337.13, -0.06, 0.67, 0.82
144, -179917.77, -180060.80, -180071.50, -179953.64, -175146.88, -107675.99, -180439.34, -180307.53, -0.04, 0.65, 0.81
145, -180021.38, -180065.63, -180086.97, -179852.09, -175129.84, -107662.67, -180484.73, -180293.83, -0.04, 0.65, 0.81
146, -180188.83, -180050.09, -180066.25, -179954.52, -175118.25, -107656.46, -180436.70, -180298.38, -0.04, 0.65, 0.81
147, -180260.31, -180017.13, -180040.86, -180041.64, -175186.11, -107733.44, -180366.09, -180284.72, -0.04, 0.65, 0.81
148, -180213.22, -180022.89, -180046.38, -179967.56, -175268.61, -107823.94, -180400.88, -180288.67, -0.04, 0.65, 0.81
149, -180141.63, -180033.66, -180061.42, -179850.78, -175290.88, -107846.31, -180446.63, -180282.13, -0.04, 0.64, 0.82
150, -180052.06, -180020.27, -180049.27, -179933.08, -175297.58, -107853.82, -180419.97, -180278.39, -0.04, 0.64, 0.82
151, -179972.03, -179990.23, -180027.52, -180036.50, -175362.42, -107925.75, -180367.66, -180291.38, -0.04, 0.64, 0.82
152, -179881.11, -180012.61, -180032.33, -179968.44, -175446.09, -108015.63, -180378.59, -180277.67, -0.04, 0.64, 0.82
153, -179951.75, -180029.59, -180051.66, -179835.33, -175457.81, -108025.59, -180442.67, -180264.27, -0.04, 0.64, 0.82
154, -180113.45, -180023.84, -180039.61, -179882.14, -175443.73, -108007.89, -180423.41, -180255.61, -0.05, 0.64, 0.82
155, -180212.23, -179990.83, -180012.77, -180012.25, -175492.02, -108056.69, -180354.30, -180272.56, -0.05, 0.64, 0.82
156, -180174.75, -179980.52, -180006.33, -179987.84, -175592.23, -108158.61, -180345.22, -180272.20, -0.05, 0.64, 0.82
157, -180119.52, -179989.30, -180013.02, -179865.20, -175650.53, -108211.90, -180390.19, -180255.09, -0.05, 0.64, 0.82
158, -180039.67, -179992.94, -180018.31, -179827.20, -175666.69, -108223.19, -180397.48, -180245.00, -0.05, 0.64, 0.82
159, -179941.89, -179969.27, -179997.92, -179966.50, -175714.59, -108269.52, -180350.50, -180248.95, -0.05, 0.64, 0.81
160, -179862.09, -179972.86, -179988.20, -179954.80, -175802.16, -108357.48, -180331.13, -180248.84, -0.05, 0.64, 0.81
161, -179984.13, -179989.42, -180007.69, -179824.36, -175844.77, -108395.32, -180394.98, -180228.84, -0.05, 0.64, 0.81
162, -180147.00, -179987.39, -180008.31, -179828.77, -175842.02, -108385.39, -180393.44, -180225.16, -0.05, 0.64, 0.81
163, -180135.67, -179953.83, -179978.78, -179958.11, -175889.77, -108430.01, -180321.00, -180224.05, -0.05, 0.64, 0.81
164, -180084.28, -179942.63, -179967.28, -179939.45, -175994.41, -108533.20, -180301.44, -180238.25, -0.08, 0.65, 0.82
165, -180033.70, -179952.53, -179977.63, -179835.45, -176076.67, -108611.48, -180344.13, -180221.53, -0.08, 0.65, 0.82
166, -179941.75, -179960.64, -179994.25, -179786.36, -176098.53, -108624.16, -180377.98, -180208.34, -0.08, 0.65, 0.82
167, -179819.80, -179958.66, -179975.59, -179914.91, -176125.70, -108643.80, -180338.88, -180213.66, -0.08, 0.65, 0.82
168, -179926.53, -179942.00, -179958.14, -179927.63, -176202.17, -108716.67, -180298.59, -180197.48, -0.08, 0.65, 0.82
169, -180128.77, -179946.27, -179963.48, -179814.19, -176274.05, -108784.39, -180334.22, -180201.81, -0.08, 0.65, 0.82
170, -180125.23, -179951.25, -179974.58, -179778.22, -176297.30, -108797.05, -180359.86, -180193.19, -0.08, 0.65, 0.82
171, -180043.77, -179929.81, -179950.89, -179912.38, -176332.48, -108824.96, -180314.53, -180185.91, -0.08, 0.65, 0.82
172, -179991.64, -179905.97, -179934.78, -179931.47, -176431.52, -108921.61, -180266.23, -180176.88, -0.08, 0.65, 0.82
173, -179940.91, -179906.08, -179936.25, -179849.66, -176531.91, -109018.57, -180285.67, -180189.20, -0.08, 0.65, 0.82
174, -179830.11, -179925.08, -179958.38, -179743.14, -176572.61, -109048.39, -180347.53, -180179.86, -0.08, 0.65, 0.82
175, -179792.08, -179937.03, -179952.09, -179818.92, -176581.92, -109047.38, -180335.03, -180173.05, -0.09, 0.65, 0.82
176, -179944.97, -179913.52, -179928.72, -179927.33, -176636.16, -109096.27, -180274.91, -180164.08, -0.09, 0.65, 0.82
177, -180135.20, -179900.73, -179920.97, -179869.89, -176725.67, -109180.11, -180267.95, -180173.88, -0.09, 0.65, 0.82
178, -180125.17, -179908.83, -179933.45, -179747.78, -176782.33, -109224.37, -180312.66, -180153.13, -0.09, 0.65, 0.82
179, -180039.08, -179908.33, -179930.11, -179781.38, -176807.03, -109238.42, -180303.72, -180155.66, -0.09, 0.65, 0.82
180, -179969.59, -179875.34, -179906.03, -179910.13, -176881.17, -109307.00, -180237.28, -180157.00, -0.08, 0.65, 0.81
181, -179921.34, -179870.66, -179904.20, -179874.97, -176992.33, -109412.45, -180243.02, -180145.55, -0.08, 0.65, 0.81
182, -179838.69, -179881.27, -179916.03, -179754.13, -177058.83, -109466.79, -180295.58, -180146.77, -0.08, 0.65, 0.81
183, -179738.78, -179903.19, -179922.97, -179748.83, -177075.75, -109470.21, -180306.91, -180137.16, -0.08, 0.65, 0.81
184, -179841.61, -179883.53, -179899.27, -179868.75, -177111.22, -109498.71, -180253.33, -180138.33, -0.08, 0.65, 0.81
185, -180051.61, -179863.36, -179884.20, -179840.91, -177198.75, -109582.02, -180225.11, -180130.67, -0.09, 0.65, 0.81
186, -180093.45, -179870.83, -179895.95, -179725.61, -177267.77, -109641.49, -180270.77, -180130.17, -0.09, 0.65, 0.81
187, -180010.48, -179872.45, -179897.41, -179739.11, -177293.00, -109654.15, -180277.19, -180124.30, -0.09, 0.65, 0.81
188, -179938.06, -179847.09, -179872.91, -179858.56, -177353.23, -109704.17, -180219.05, -180121.77, -0.09, 0.65, 0.81
189, -179888.42, -179837.19, -179861.67, -179827.53, -177462.97, -109807.61, -180199.47, -180107.20, -0.09, 0.65, 0.81
190, -179804.47, -179846.80, -179881.89, -179720.33, -177543.20, -109880.66, -180248.50, -180109.77, -0.07, 0.66, 0.79
191, -179715.11, -179873.05, -179895.94, -179686.66, -177554.45, -109881.98, -180284.30, -180107.13, -0.07, 0.66, 0.79
192, -179814.72, -179863.67, -179875.56, -179814.17, -177567.22, -109888.48, -180249.61, -180099.42, -0.07, 0.66, 0.79
193, -180014.94, -179832.50, -179856.34, -179851.56, -177641.42, -109958.69, -180189.66, -180098.53, -0.07, 0.66, 0.79
194, -180069.36, -179835.41, -179856.81, -179759.34, -177727.31, -110039.04, -180216.20, -180095.53, -0.07, 0.66, 0.79
195, -179998.66, -179842.63, -179868.27, -179665.64, -177761.89, -110063.92, -180248.97, -180090.55, -0.06, 0.65, 0.79
196, -179913.20, -179829.86, -179855.09, -179779.25, -177792.39, -110088.48, -180218.73, -180090.70, -0.06, 0.65, 0.79
197, -179850.58, -179798.56, -179832.52, -179843.50, -177878.19, -110172.46, -180162.14, -180103.33, -0.06, 0.65, 0.79
198, -179782.27, -179806.34, -179840.44, -179765.59, -177974.80, -110266.63, -180193.28, -180087.70, -0.06, 0.65, 0.79
199, -179681.89, -179840.70, -179862.17, -179649.66, -177999.92, -110287.13, -180245.05, -180081.16, -0.06, 0.65, 0.79
200, -179752.80, -179838.69, -179852.05, -179715.80, -177994.13, -110277.38, -180229.98, -180070.03, -0.06, 0.65, 0.79
201, -179937.39, -179806.92, -179825.02, -179815.59, -178038.30, -110324.01, -180172.63, -180076.73, -0.05, 0.66, 0.79
202, -180042.05, -179792.84, -179814.06, -179759.98, -178126.83, -110414.35, -180158.83, -180064.13, -0.05, 0.66, 0.79
203, -179984.75, -179806.55, -179831.00, -179637.86, -178171.83, -110456.04, -180213.55, -180057.06, -0.05, 0.66, 0.79
204, -179896.27, -179804.95, -179828.34, -179676.59, -178182.28, -110465.98, -180201.91, -180058.16, -0.05, 0.66, 0.79
205, -179826.44, -179774.83, -179801.47, -179802.09, -178241.77, -110528.88, -180138.78, -180038.92, -0.05, 0.66, 0.79
206, -179767.20, -179762.77, -179802.88, -179758.17, -178331.42, -110624.81, -180149.31, -180056.73, -0.04, 0.67, 0.80
207, -179658.38, -179779.52, -179815.27, -179635.31, -178376.95, -110673.52, -180192.20, -180047.14, -0.04, 0.67, 0.80
208, -179653.81, -179797.11, -179825.56, -179633.05, -178362.88, -110661.27, -180218.94, -180035.70, -0.04, 0.67, 0.80
209, -179798.97, -179785.78, -179801.22, -179760.19, -178376.44, -110679.73, -180153.73, -180031.31, -0.04, 0.67, 0.80
210, -179981.81, -179764.84, -179783.03, -179750.06, -178443.38, -110756.04, -180125.45, -180042.20, -0.04, 0.67, 0.80
211, -179973.31, -179767.44, -179791.08, -179633.50, -178496.44, -110816.48, -180159.75, -180030.94, -0.04, 0.67, 0.80
212, -179888.94, -179773.20, -179800.06, -179617.47, -178500.16, -110823.56, -180180.11, -180022.02, -0.04, 0.67, 0.80
213, -179809.14, -179742.89, -179773.63, -179751.38, -178529.64, -110860.18, -180116.36, -180010.61, -0.04, 0.67, 0.80
214, -179749.97, -179726.03, -179762.78, -179743.78, -178608.41, -110950.28, -180101.75, -180024.08, -0.04, 0.67, 0.80
215, -179646.97, -179747.63, -179772.09, -179629.97, -178663.20, -111015.77, -180142.11, -180018.22, -0.04, 0.67, 0.80
216, -179626.14, -179773.69, -179792.98, -179556.36, -178645.84, -111006.29, -180185.14, -179998.55, -0.03, 0.67, 0.80
217, -179751.88, -179755.83, -179771.25, -179669.33, -178630.84, -111002.60, -180140.50, -179995.81, -0.03, 0.67, 0.80
218, -179939.16, -179730.06, -179747.72, -179729.64, -178676.44, -111066.62, -180092.14, -180014.97, -0.03, 0.67, 0.80
219, -179955.83, -179725.55, -179747.88, -179636.69, -178740.59, -111145.19, -180104.19, -180003.08, -0.03, 0.67, 0.80
220, -179878.52, -179745.61, -179768.30, -179561.38, -178747.08, -111159.49, -180152.02, -179988.13, -0.03, 0.67, 0.80
221, -179790.20, -179721.11, -179746.94, -179680.39, -178750.14, -111173.41, -180107.58, -179980.55, -0.03, 0.66, 0.79
222, -179726.84, -179696.59, -179730.45, -179719.06, -178811.22, -111250.73, -180065.58, -179991.02, -0.03, 0.66, 0.79
223, -179633.25, -179711.80, -179733.77, -179626.56, -178879.63, -111334.64, -180087.19, -179987.45, -0.03, 0.66, 0.79
224, -179584.80, -179743.42, -179758.94, -179516.86, -178874.95, -111341.03, -180152.64, -179972.08, -0.03, 0.66, 0.79
225, -179689.95, -179733.80, -179749.95, -179588.97, -178842.52, -111322.14, -180136.09, -179968.42, -0.03, 0.66, 0.79
226, -179872.58, -179705.53, -179723.38, -179708.41, -178864.95, -111360.86, -180072.95, -179977.45, -0.03, 0.67, 0.81
227, -179939.03, -179687.70, -179708.84, -179668.17, -178934.92, -111446.06, -180053.28, -179973.14, -0.03, 0.67, 0.81
228, -179879.39, -179699.91, -179724.31, -179540.81, -178965.14, -111486.45, -180106.64, -179954.30, -0.03, 0.67, 0.81
229, -179788.75, -179704.02, -179727.27, -179557.86, -178958.25, -111490.41, -180101.83, -179948.70, -0.03, 0.67, 0.81
230, -179709.30, -179673.28, -179705.30, -179691.61, -178993.55, -111538.98, -180050.36, -179953.47, -0.03, 0.67, 0.81
231, -179634.13, -179658.38, -179695.88, -179660.39, -179068.92, -111628.05, -180035.31, -179962.31, -0.03, 0.67, 0.81
232, -179547.27, -179698.03, -179715.59, -179530.14, -179094.84, -111664.70, -180096.41, -179933.70, -0.05, 0.67, 0.81
233, -179620.78, -179702.92, -179723.17, -179518.98, -179062.03, -111642.06, -180112.16, -179932.34, -0.05, 0.67, 0.81
234, -179787.19, -179678.17, -179693.77, -179651.45, -179064.94, -111657.40, -180046.06, -179936.83, -0.05, 0.67, 0.81
235, -179897.50, -179651.06, -179676.84, -179666.09, -179133.58, -111741.53, -180008.45, -179937.61, -0.05, 0.67, 0.81
236, -179851.34, -179665.14, -179686.58, -179550.50, -179185.69, -111805.41, -180059.39, -179922.13, -0.05, 0.67, 0.81
237, -179766.58, -179671.08, -179693.84, -179512.95, -179186.22, -111812.02, -180076.27, -179913.56, -0.05, 0.66, 0.80
238, -179683.44, -179643.52, -179671.91, -179641.97, -179209.73, -111845.16, -180020.61, -179912.69, -0.05, 0.66, 0.80
239, -179614.25, -179624.17, -179657.95, -179638.17, -179288.77, -111937.22, -179991.19, -179913.98, -0.05, 0.66, 0.80
240, -179516.73, -179666.56, -179675.30, -179516.44, -179338.91, -111996.85, -180056.14, -179905.81, -0.05, 0.66, 0.80
241, -179577.58, -179668.50, -179687.17, -179460.00, -179320.81, -111983.89, -180077.25, -179896.59, -0.05, 0.66, 0.80
242, -179737.88, -179649.23, -179665.23, -179581.83, -179313.59, -111984.52, -180036.23, -179893.78, -0.05, 0.66, 0.80
243, -179855.11, -179617.77, -179640.88, -179636.19, -179373.88, -112058.23, -179975.86, -179909.00, -0.05, 0.66, 0.80
244, -179818.45, -179623.55, -179647.00, -179546.45, -179449.72, -112142.92, -180003.42, -179891.39, -0.05, 0.66, 0.80
245, -179740.19, -179641.44, -179664.97, -179460.56, -179464.98, -112161.88, -180053.16, -179882.72, -0.05, 0.66, 0.80
246, -179653.38, -179615.80, -179645.19, -179575.39, -179476.91, -112181.03, -180004.89, -179878.61, -0.05, 0.66, 0.80
247, -179575.56, -179590.36, -179627.23, -179619.48, -179544.84, -112258.41, -179964.66, -179890.88, -0.06, 0.66, 0.79
248, -179488.06, -179618.81, -179634.84, -179520.52, -179616.25, -112336.04, -179990.25, -179880.03, -0.06, 0.66, 0.79
249, -179565.73, -179634.55, -179652.08, -179425.78, -179617.16, -112340.67, -180039.63, -179864.28, -0.06, 0.66, 0.79
250, -179726.58, -179621.73, -179638.50, -179518.75, -179604.67, -112331.52, -180017.80, -179855.42, -0.06, 0.66, 0.79
251, -179831.09, -179591.95, -179613.03, -179618.97, -179658.23, -112389.26, -179956.25, -179863.19, -0.06, 0.66, 0.79
252, -179790.27, -179587.55, -179609.69, -179562.44, -179746.38, -112482.13, -179954.84, -179878.42, -0.06, 0.65, 0.80
253, -179728.72, -179599.59, -179624.25, -179440.56, -179793.09, -112529.05, -180002.64, -179850.78, -0.06, 0.65, 0.80
254, -179640.66, -179591.98, -179621.98, -179469.61, -179805.03, -112539.60, -179996.14, -179851.67, -0.06, 0.65, 0.80
255, -179567.14, -179554.11, -179597.20, -179604.69, -179923.64, -112600.53, -179936.28, -179860.69, -0.06, 0.65, 0.80
0, -179504.38, -179551.83, -179586.61, -179588.08, -180064.44, -112732.56, -179918.50, -179851.56, -0.06, 0.65, 0.80
1, -179458.64, -179587.23, -179604.17, -179473.73, -179955.31, -112827.73, -179978.52, -179835.38, -0.07, 0.64, 0.80
2, -179599.25, -179585.33, -179608.80, -179428.38, -179771.75, -112870.54, -179987.06, -179824.00, -0.07, 0.64, 0.80
3, -179778.03, -179561.13, -179585.80, -179565.13, -179536.52, -112943.56, -179923.63, -179829.55, -0.07, 0.64, 0.80
4, -179779.72, -179555.00, -179580.66, -179564.50, -179477.11, -113051.14, -179917.28, -179822.06, -0.07, 0.64, 0.80
5, -179720.14, -179568.36, -179590.61, -179448.36, -179542.66, -113117.95, -179959.67, -179837.41, -0.07, 0.64, 0.80
6, -179639.95, -179574.41, -179601.45, -179395.36, -179567.11, -113134.71, -179978.50, -179827.42, -0.07, 0.64, 0.80
7, -179538.81, -179552.83, -179584.39, -179533.61, -179604.00, -113166.90, -179943.20, -179830.69, -0.07, 0.64, 0.80
8, -179448.78, -179549.13, -179569.64, -179557.88, -179686.70, -113247.34, -179908.11, -179815.11, -0.07, 0.64, 0.80
9, -179567.30, -179559.78, -179578.27, -179434.03, -179745.44, -113300.23, -179951.36, -179807.08, -0.07, 0.64, 0.80
10, -179728.42, -179566.28, -179586.58, -179388.88, -179756.33, -113301.52, -179969.17, -179802.20, -0.07, 0.64, 0.80
11, -179699.59, -179540.19, -179562.78, -179517.73, -179819.94, -113333.64, -179919.11, -179798.52, -0.07, 0.64, 0.80
12, -179650.28, -179516.20, -179540.41, -179525.55, -180008.14, -113443.46, -179876.27, -179832.36, -0.07, 0.65, 0.80
13, -179623.44, -179511.81, -179538.41, -179457.48, -179994.36, -113582.24, -179880.44, -179817.67, -0.07, 0.65, 0.80
14, -179579.56, -179524.20, -179557.39, -179373.06, -179862.56, -113671.00, -179921.17, -179789.22, -0.07, 0.65, 0.80
15, -179515.23, -179507.33, -179549.67, -179483.19, -179717.73, -113747.66, -179901.00, -179790.25, -0.07, 0.65, 0.80
16, -179429.45, -179503.86, -179539.36, -179544.31, -179574.56, -113869.48, -179872.70, -179806.61, -0.07, 0.65, 0.80
17, -179439.33, -179528.53, -179546.44, -179455.72, -179395.92, -113970.78, -179901.11, -179782.86, -0.06, 0.66, 0.80
18, -179598.11, -179547.25, -179563.69, -179340.27, -179375.05, -113987.39, -179953.83, -179778.42, -0.06, 0.66, 0.80
19, -179729.39, -179530.38, -179550.03, -179427.77, -179387.67, -113994.01, -179919.88, -179773.55, -0.06, 0.66, 0.80
20, -179695.06, -179500.19, -179527.33, -179534.25, -179462.84, -114064.10, -179860.91, -179765.63, -0.06, 0.66, 0.80
21, -179640.42, -179500.66, -179524.47, -179474.27, -179562.94, -114159.20, -179869.38, -179777.69, -0.06, 0.66, 0.80
22, -179577.23, -179511.53, -179538.22, -179353.98, -179623.50, -114212.31, -179910.81, -179763.09, -0.07, 0.66, 0.80
23, -179460.45, -179510.11, -179539.48, -179378.23, -179646.08, -114227.83, -179916.98, -179761.19, -0.07, 0.66, 0.80
24, -179376.41, -179507.17, -179525.73, -179503.50, -179689.91, -114268.15, -179877.94, -179759.81, -0.07, 0.66, 0.80
25, -179534.34, -179489.36, -179508.91, -179458.27, -179820.09, -114343.95, -179856.09, -179765.83, -0.07, 0.66, 0.80
26, -179717.23, -179491.31, -179515.28, -179346.69, -179934.70, -114425.86, -179882.39, -179749.97, -0.07, 0.66, 0.80
27, -179686.45, -179485.44, -179512.38, -179398.81, -179808.73, -114492.65, -179878.92, -179753.03, -0.06, 0.67, 0.80
28, -179636.97, -179464.36, -179492.80, -179499.19, -179693.36, -114599.67, -179831.78, -179757.81, -0.06, 0.67, 0.80
29, -179608.23, -179457.64, -179486.64, -179458.39, -179603.06, -114747.28, -179813.94, -179742.19, -0.06, 0.67, 0.80
30, -178093.58, -178081.86, -178079.19, -177933.94, -177851.45, -113430.52, -178451.03, -178289.05, -0.06, 0.67, 0.80
31, -155617.91, -156268.73, -156314.78, -157295.17, -152363.25, -92116.23, -156005.89, -155991.50, -0.06, 0.67, 0.80
32, -113742.03, -115010.79, -118239.77, -127978.82, -103716.25, -56817.66, -114588.65, -114135.31, -0.11, 0.83, 0.79
33, -79323.41, -79918.86, -90939.34, -113419.20, -65191.61, -33280.59, -86990.05, -79713.05, -0.11, 0.83, 0.79
34, -55859.15, -56009.71, -73841.71, -103229.54, -38096.02, -17803.25, -68980.32, -56270.36, -0.11, 0.83, 0.79
35, -43501.23, -43762.52, -64538.02, -94651.09, -20080.20, -10187.97, -58026.67, -43921.73, -0.11, 0.83, 0.79
36, -31669.98, -32481.17, -57673.89, -89331.45, -6910.06, -4033.46, -49601.36, -32111.16, -0.11, 0.83, 0.79
37, -17480.54, -22375.77, -51320.83, -86024.42, 3977.40, 2974.21, -41974.43, -18033.45, -0.11, 0.83, 0.79
38, -6198.25, -16028.21, -46401.59, -82249.99, 12927.60, 8051.93, -36262.73, -7000.30, -0.11, 0.76, 0.82
39, -2732.48, -12811.28, -43805.42, -77109.36, 19401.13, 8510.90, -33670.76, -3594.94, -0.11, 0.76, 0.82
40, 1499.04, -9411.27, -41219.32, -73496.24, 24650.02, 9040.36, -31356.77, 424.30, -0.11, 0.76, 0.82
41, 9903.81, -4626.65, -37887.26, -71461.59, 29873.24, 11775.08, -27946.88, 8074.81, -0.11, 0.76, 0.82
42, 17922.59, 228.35, -35259.09, -69762.45, 34481.88, 14317.39, -24895.06, 15051.08, -0.11, 0.76, 0.82
43, 18646.92, 3586.85, -34644.33, -66694.12, 37502.67, 13067.03, -24303.45, 15168.03, -0.07, 0.71, 0.80
44, 19019.63, 8353.03, -34082.52, -64318.28, 39742.05, 11393.89, -24238.74, 14864.33, -0.07, 0.71, 0.80
45, 24069.90, 13889.17, -32419.24, -63636.87, 42444.93, 12184.27, -22916.95, 18718.11, -0.07, 0.71, 0.80
46, 30951.26, 18700.21, -30537.51, -63478.17, 45383.09, 14079.45, -21081.40, 24110.38, -0.07, 0.71, 0.80
47, 31452.17, 21191.46, -30207.69, -61634.53, 47357.62, 12925.77, -21080.40, 23747.56, -0.07, 0.71, 0.80
48, 30226.49, 22424.50, -30275.35, -59806.56, 48498.05, 10655.63, -21844.67, 21770.73, -0.07, 0.70, 0.79
49, 33829.95, 23978.82, -29324.01, -59940.67, 50188.98, 10834.52, -21193.16, 24011.41, -0.07, 0.70, 0.79
50, 40111.63, 25591.09, -28077.46, -60982.02, 52363.32, 12530.68, -19652.48, 28568.30, -0.07, 0.70, 0.79
51, 40522.04, 25971.27, -28306.92, -60521.35, 53799.11, 11521.74, -19630.02, 27976.09, -0.07, 0.70, 0.79
52, 37570.80, 25699.19, -29094.50, -59650.99, 54249.87, 8622.65, -20769.66, 24486.51, -0.07, 0.70, 0.79
53, 39290.92, 26754.23, -28504.04, -60263.16, 55267.32, 8036.48, -20558.42, 25171.73, -0.08, 0.67, 0.80
54, 44824.95, 28957.82, -27104.80, -61540.54, 56954.55, 9521.35, -19117.13, 29218.89, -0.08, 0.67, 0.80
55, 45993.81, 30453.76, -26843.06, -61343.29, 58173.34, 9116.36, -18703.69, 29434.07, -0.08, 0.67, 0.80
56, 42372.89, 30668.22, -27389.49, -59870.40, 58330.54, 6228.87, -19754.38, 25400.61, -0.08, 0.67, 0.80
57, 43043.94, 31754.68, -26502.89, -59165.98, 59159.52, 5506.51, -19454.24, 25229.51, -0.08, 0.67, 0.80
58, 48718.55, 33748.23, -24440.20, -59383.62, 60910.31, 7429.14, -17561.29, 29839.27, -0.06, 0.68, 0.80
59, 53476.79, 35149.26, -22861.86, -59265.87, 62573.95, 9047.52, -15891.71, 33897.22, -0.06, 0.68, 0.80
60, 52474.00, 34107.26, -23266.18, -58638.28, 62488.17, 7408.08, -16521.07, 32897.27, -0.06, 0.68, 0.80
61, 54296.99, 32801.09, -23437.01, -59319.29, 62118.09, 6676.22, -16902.52, 34731.35, -0.06, 0.68, 0.80
62, 61278.16, 32966.72, -22349.82, -60110.97, 63061.33, 8754.33, -15432.56, 41259.57, -0.06, 0.68, 0.80
63, 67262.92, 33489.93, -21214.76, -58954.38, 64610.91, 10821.89, -13701.31, 46731.30, -0.04, 0.69, 0.81
64, 66254.05, 32282.29, -21436.57, -55905.15, 64944.54, 9424.19, -14052.21, 45587.45, -0.04, 0.69, 0.81
65, 67022.69, 31217.74, -21090.61, -53938.89, 65196.37, 8596.91, -14112.91, 46219.52, -0.04, 0.69, 0.81
66, 73029.27, 31061.10, -19757.04, -53740.83, 66353.37, 10362.76, -12585.86, 52082.80, -0.04, 0.69, 0.81
67, 79454.19, 30409.68, -18730.78, -53879.28, 67837.88, 12371.06, -10854.59, 58452.04, -0.04, 0.69, 0.81
68, 78567.14, 28604.44, -19500.60, -53008.93, 68160.79, 10406.28, -11453.23, 57535.60, -0.04, 0.69, 0.81
69, 77487.41, 29915.19, -21240.17, -53040.93, 67928.71, 7911.51, -11278.49, 56422.55, -0.03, 0.69, 0.80
70, 81499.29, 34429.91, -23131.02, -54507.59, 68210.39, 10465.65, -6643.99, 60391.26, -0.03, 0.69, 0.80
71, 87600.93, 40450.15, -20171.38, -56567.21, 69701.86, 16350.26, -511.94, 66448.13, -0.03, 0.69, 0.80
72, 88947.52, 41808.55, -18977.95, -57955.86, 70961.45, 17778.93, 795.52, 67766.82, -0.03, 0.69, 0.80
73, 88400.41, 41308.04, -19556.64, -58500.10, 70645.68, 17355.08, 210.49, 67195.35, -0.03, 0.69, 0.80
74, 88193.72, 41129.62, -19815.74, -58648.98, 70532.76, 17243.25, -53.91, 66944.75, -0.06, 0.63, 0.80
75, 88001.48, 40955.21, -20072.40, -58802.43, 70418.38, 17129.48, -316.97, 66694.97, -0.06, 0.63, 0.80
76, 87814.48, 40795.42, -20312.84, -58937.91, 70322.92, 17036.23, -555.53, 66471.36, -0.06, 0.63, 0.80
77, 87635.35, 40650.25, -20538.77, -59057.33, 70243.46, 16960.41, -774.24, 66270.93, -0.06, 0.63, 0.80
78, 87457.88, 40498.19, -20775.81, -59192.16, 70149.98, 16869.69, -1007.42, 66054.39, -0.06, 0.63, 0.80
79, 87285.30, 40337.84, -21024.99, -59344.50, 70041.83, 16762.56, -1258.60, 65818.11, -0.05, 0.64, 0.78
80, 87118.70, 40191.48, -21259.95, -59480.43, 69949.38, 16677.60, -1487.37, 65605.07, -0.05, 0.64, 0.78
81, 86953.16, 40056.07, -21478.62, -59595.05, 69876.89, 16617.07, -1690.86, 65420.20, -0.05, 0.64, 0.78
82, 86792.29, 39915.48, -21706.02, -59722.92, 69792.16, 16541.38, -1909.33, 65218.34, -0.05, 0.64, 0.78
83, 86633.55, 39765.63, -21947.94, -59873.53, 69685.95, 16440.11, -2152.92, 64989.93, -0.05, 0.64, 0.78
84, 86473.78, 39621.95, -22183.53, -60014.45, 69589.13, 16350.50, -2383.95, 64774.04, -0.07, 0.65, 0.79
85, 86315.37, 39493.03, -22397.65, -60128.34, 69519.24, 16293.50, -2580.04, 64593.39, -0.07, 0.65, 0.79
86, 86160.18, 39360.48, -22617.60, -60251.18, 69439.60, 16226.94, -2786.90, 64403.89, -0.07, 0.65, 0.79
87, 86007.52, 39218.79, -22854.68, -60398.34, 69335.40, 16130.23, -3025.46, 64184.37, -0.07, 0.65, 0.79
88, 85858.03, 39080.95, -23087.00, -60539.88, 69237.34, 16039.79, -3256.47, 63970.54, -0.07, 0.65, 0.79
89, 85709.08, 38956.23, -23298.97, -60651.21, 69168.74, 15986.32, -3449.41, 63795.39, -0.07, 0.64, 0.80
90, 85561.83, 38829.45, -23512.11, -60768.16, 69095.70, 15929.82, -3645.73, 63617.67, -0.07, 0.64, 0.80
91, 85414.41, 38691.36, -23745.87, -60912.46, 68995.61, 15840.73, -3874.99, 63405.59, -0.07, 0.64, 0.80
92, 85268.75, 38552.98, -23985.05, -61060.54, 68891.02, 15745.86, -4108.72, 63189.00, -0.07, 0.64, 0.80
93, 85125.56, 38431.34, -24196.97, -61175.18, 68820.05, 15689.56, -4300.63, 63015.27, -0.07, 0.64, 0.80
94, 84983.74, 38312.54, -24403.46, -61284.57, 68753.09, 15638.20, -4487.47, 62848.12, -0.07, 0.64, 0.80
95, 84840.91, 38182.28, -24630.26, -61421.52, 68656.66, 15556.14, -4709.80, 62646.37, -0.07, 0.64, 0.80
96, 84701.73, 38048.68, -24863.97, -61567.61, 68550.63, 15464.57, -4943.24, 62431.59, -0.07, 0.64, 0.80
97, 84563.15, 37928.96, -25075.17, -61685.38, 68475.33, 15408.04, -5139.05, 62258.05, -0.07, 0.64, 0.80
98, 84424.41, 37815.44, -25278.41, -61792.36, 68411.73, 15364.21, -5321.30, 62099.43, -0.07, 0.64, 0.80
99, 84287.27, 37689.20, -25501.64, -61925.06, 68322.66, 15288.82, -5533.67, 61906.35, -0.07, 0.64, 0.80
100, 84148.37, 37554.15, -25737.45, -62074.46, 68213.07, 15193.11, -5767.69, 61691.28, -0.07, 0.66, 0.80
101, 84013.39, 37433.56, -25951.71, -62197.88, 68129.37, 15130.32, -5967.74, 61511.08, -0.07, 0.66, 0.80
102, 83881.02, 37323.16, -26150.58, -62303.83, 68066.83, 15089.53, -6143.98, 61356.41, -0.07, 0.66, 0.80
103, 83748.25, 37203.36, -26364.75, -62430.21, 67982.13, 15022.81, -6347.54, 61174.33, -0.07, 0.66, 0.80
104, 83615.84, 37073.52, -26595.22, -62577.64, 67875.25, 14929.65, -6577.87, 60963.38, -0.07, 0.66, 0.80
105, 83484.79, 36954.03, -26810.96, -62707.04, 67786.52, 14859.98, -6783.98, 60778.37, -0.07, 0.66, 0.81
106, 83355.62, 36848.44, -27007.25, -62811.44, 67726.07, 14822.33, -6956.60, 60628.08, -0.07, 0.66, 0.81
107, 83224.73, 36733.48, -27217.25, -62931.65, 67647.28, 14763.13, -7149.88, 60455.97, -0.07, 0.66, 0.81
108, 83092.36, 36603.08, -27447.18, -63078.68, 67540.66, 14671.15, -7375.83, 60247.40, -0.07, 0.66, 0.81
109, 82963.05, 36481.82, -27668.38, -63213.91, 67447.75, 14594.33, -7587.59, 60054.69, -0.07, 0.66, 0.81
110, 82833.35, 36375.65, -27864.44, -63315.72, 67386.02, 14556.30, -7759.56, 59904.19, -0.05, 0.66, 0.81
111, 82702.88, 36262.71, -28068.40, -63428.46, 67314.31, 14506.46, -7945.08, 59741.32, -0.05, 0.66, 0.81
112, 82575.55, 36138.50, -28294.63, -63571.80, 67214.29, 14422.73, -8166.72, 59540.98, -0.05, 0.66, 0.81
113, 82448.85, 36018.00, -28518.32, -63713.40, 67115.34, 14342.44, -8384.36, 59343.75, -0.05, 0.66, 0.81
114, 82322.37, 35911.63, -28716.71, -63819.75, 67052.46, 14302.32, -8558.59, 59192.13, -0.05, 0.66, 0.81
115, 82196.05, 35804.03, -28918.73, -63928.36, 66986.63, 14256.97, -8737.68, 59036.57, -0.05, 0.67, 0.80
116, 82068.59, 35682.79, -29144.30, -64068.79, 66887.91, 14175.43, -8957.71, 58840.65, -0.05, 0.67, 0.80
117, 81943.86, 35560.35, -29372.38, -64214.97, 66784.75, 14088.24, -9180.42, 58638.14, -0.05, 0.67, 0.80
118, 81820.21, 35455.39, -29572.70, -64324.86, 66718.59, 14043.91, -9357.94, 58483.74, -0.05, 0.67, 0.80
119, 81697.27, 35352.12, -29767.52, -64428.90, 66659.56, 14006.05, -9530.16, 58336.89, -0.05, 0.67, 0.80
120, 81573.43, 35236.34, -29984.22, -64561.69, 66572.50, 13933.76, -9738.36, 58149.18, -0.04, 0.66, 0.79
121, 81449.09, 35114.46, -30212.36, -64707.02, 66470.48, 13844.31, -9963.47, 57942.89, -0.04, 0.66, 0.79
122, 81327.76, 35007.61, -30415.56, -64821.82, 66400.34, 13792.99, -10149.21, 57778.14, -0.04, 0.66, 0.79
123, 81206.95, 34906.63, -30607.85, -64922.54, 66344.00, 13759.40, -10316.78, 57635.00, -0.04, 0.66, 0.79
124, 81083.54, 34791.65, -30823.08, -65051.24, 66259.42, 13692.48, -10519.07, 57455.00, -0.04, 0.66, 0.79
125, 80961.39, 34667.15, -31052.74, -65199.52, 66156.65, 13601.82, -10747.10, 57247.38, -0.04, 0.66, 0.78
126, 80842.32, 34558.21, -31259.88, -65320.85, 66083.45, 13545.13, -10940.87, 57076.61, -0.04, 0.66, 0.78
127, 80725.16, 34460.36, -31448.99, -65419.29, 66031.70, 13515.05, -11104.77, 56937.51, -0.04, 0.66, 0.78
128, 80606.40, 34351.32, -31655.43, -65540.05, 65956.06, 13459.01, -11295.72, 56769.59, -0.04, 0.66, 0.78
129, 80484.78, 34229.71, -31882.10, -65687.46, 65853.63, 13372.09, -11519.55, 56566.43, -0.04, 0.66, 0.78
130, 80367.02, 34118.64, -32093.91, -65816.03, 65773.56, 13307.51, -11719.76, 56390.61, -0.04, 0.66, 0.78
131, 80250.47, 34020.67, -32284.19, -65916.05, 65723.02, 13276.56, -11882.83, 56250.82, -0.04, 0.65, 0.78
132, 80132.86, 33914.61, -32488.57, -66032.33, 65653.11, 13225.44, -12068.67, 56088.15, -0.04, 0.65, 0.78
133, 80013.38, 33796.08, -32713.30, -66176.63, 65553.55, 13140.81, -12290.15, 55889.17, -0.04, 0.65, 0.78
134, 79893.85, 33682.31, -32928.61, -66309.38, 65466.58, 13068.95, -12497.13, 55705.48, -0.04, 0.65, 0.78
135, 79778.60, 33584.72, -33117.95, -66407.57, 65416.60, 13038.71, -12659.74, 55568.31, -0.04, 0.65, 0.78
136, 79663.16, 33482.60, -33314.98, -66516.64, 65357.26, 12996.18, -12834.68, 55418.80, -0.04, 0.67, 0.79
137, 79544.80, 33364.14, -33537.14, -66657.46, 65264.14, 12917.47, -13048.97, 55226.82, -0.04, 0.67, 0.79
138, 79428.17, 33247.93, -33757.57, -66795.93, 65172.27, 12841.77, -13262.32, 55036.43, -0.04, 0.67, 0.79
139, 79314.47, 33150.96, -33949.53, -66896.66, 65118.74, 12808.64, -13430.02, 54894.59, -0.04, 0.67, 0.79
140, 79200.45, 33052.17, -34145.17, -67001.84, 65061.77, 12771.29, -13600.39, 54749.34, -0.04, 0.67, 0.79
141, 79083.29, 32936.99, -34363.79, -67137.64, 64973.39, 12697.22, -13809.38, 54562.26, -0.03, 0.67, 0.80
142, 78966.27, 32819.51, -34584.99, -67279.80, 64879.11, 12615.79, -14027.26, 54367.38, -0.03, 0.67, 0.80
143, 78852.93, 32721.37, -34777.77, -67385.16, 64823.50, 12578.42, -14200.35, 54221.60, -0.03, 0.67, 0.80
144, 78741.80, 32627.13, -34964.21, -67482.06, 64776.20, 12549.45, -14363.92, 54085.97, -0.03, 0.67, 0.80
145, 78627.20, 32516.71, -35178.09, -67610.91, 64696.21, 12484.79, -14565.60, 53909.54, -0.03, 0.67, 0.80
146, 78510.86, 32399.52, -35402.50, -67755.53, 64600.32, 12402.45, -14784.02, 53713.72, -0.03, 0.67, 0.81
147, 78396.80, 32298.58, -35598.37, -67867.85, 64538.13, 12358.70, -14960.89, 53559.79, -0.03, 0.67, 0.81
148, 78283.02, 32205.15, -35785.07, -67966.60, 64489.27, 12330.96, -15120.89, 53423.02, -0.03, 0.67, 0.81
149, 78167.22, 32098.47, -35992.75, -68091.70, 64412.32, 12270.75, -15314.99, 53252.22, -0.03, 0.67, 0.81
150, 78052.04, 31983.56, -36216.66, -68237.02, 64314.82, 12188.88, -15533.34, 53056.29, -0.03, 0.67, 0.81
151, 77940.30, 31881.88, -36419.44, -68354.07, 64246.00, 12140.33, -15718.84, 52894.95, -0.04, 0.67, 0.81
152, 77831.01, 31792.09, -36601.92, -68447.72, 64202.81, 12119.47, -15873.74, 52765.63, -0.04, 0.67, 0.81
153, 77720.14, 31691.29, -36804.07, -68565.52, 64135.89, 12070.84, -16058.39, 52605.52, -0.04, 0.67, 0.81
154, 77606.91, 31578.30, -37025.82, -68708.16, 64040.83, 11989.50, -16275.78, 52410.19, -0.04, 0.67, 0.81
155, 77495.82, 31475.48, -37231.79, -68832.02, 63966.73, 11930.44, -16467.87, 52241.48, -0.04, 0.67, 0.81
156, 77383.66, 31387.39, -37416.91, -68927.41, 63922.34, 11906.62, -16624.29, 52111.73, -0.05, 0.67, 0.81
157, 77270.49, 31288.82, -37613.89, -69039.38, 63861.19, 11864.04, -16801.61, 51960.72, -0.05, 0.67, 0.81
158, 77156.54, 31176.35, -37833.59, -69180.55, 63770.62, 11787.17, -17015.53, 51770.04, -0.05, 0.67, 0.81
159, 77044.96, 31071.23, -38046.04, -69310.34, 63690.51, 11722.77, -17215.67, 51594.60, -0.05, 0.67, 0.81
160, 76938.57, 30984.12, -38227.94, -69403.98, 63646.90, 11701.65, -17371.62, 51467.01, -0.05, 0.67, 0.81
161, 76829.94, 30891.50, -38418.09, -69509.03, 63593.91, 11667.72, -17539.32, 51324.61, -0.05, 0.67, 0.81
162, 76716.80, 30782.42, -38635.35, -69646.60, 63507.56, 11596.58, -17747.98, 51139.58, -0.05, 0.66, 0.80
163, 76604.97, 30672.43, -38850.82, -69781.85, 63423.14, 11526.35, -17955.22, 50956.77, -0.05, 0.66, 0.80
164, 76495.45, 30580.05, -39038.41, -69879.42, 63373.99, 11498.27, -18115.84, 50821.81, -0.05, 0.66, 0.80
165, 76385.56, 30490.37, -39225.84, -69978.59, 63324.32, 11469.08, -18276.73, 50686.40, -0.05, 0.66, 0.80
166, 76272.22, 30385.47, -39436.43, -70110.47, 63242.38, 11403.88, -18476.85, 50509.75, -0.05, 0.66, 0.80
167, 76160.51, 30278.30, -39652.80, -70249.02, 63153.49, 11328.49, -18685.88, 50323.57, -0.05, 0.66, 0.79
168, 76054.45, 30188.11, -39840.89, -70351.42, 63104.09, 11296.33, -18849.81, 50186.71, -0.05, 0.66, 0.79
169, 75948.41, 30100.15, -40024.42, -70448.94, 63060.28, 11271.40, -19006.49, 50058.70, -0.05, 0.66, 0.79
170, 75838.86, 29997.89, -40233.72, -70574.54, 62984.80, 11212.71, -19200.77, 49890.95, -0.05, 0.66, 0.79
171, 75727.40, 29886.65, -40453.15, -70714.41, 62894.48, 11135.26, -19414.32, 49701.43, -0.05, 0.66, 0.79
172, 75618.48, 29791.57, -40649.08, -70822.75, 62835.40, 11096.05, -19587.21, 49553.82, -0.05, 0.66, 0.79
173, 75513.78, 29705.56, -40829.84, -70913.86, 62795.61, 11077.55, -19736.39, 49429.16, -0.05, 0.66, 0.79
174, 75406.00, 29605.44, -41030.02, -71032.88, 62728.58, 11026.76, -19920.99, 49268.68, -0.05, 0.66, 0.79
175, 75296.79, 29496.59, -41247.57, -71174.45, 62638.71, 10950.37, -20134.88, 49079.36, -0.05, 0.66, 0.79
176, 75192.74, 29403.34, -41443.55, -71289.97, 62577.26, 10906.44, -20314.25, 48925.46, -0.05, 0.66, 0.79
177, 75089.48, 29319.63, -41622.05, -71381.66, 62540.09, 10890.17, -20463.74, 48803.13, -0.04, 0.65, 0.78
178, 74983.98, 29224.53, -41817.65, -71494.11, 62480.37, 10846.36, -20641.90, 48650.63, -0.04, 0.65, 0.78
179, 74874.16, 29116.05, -42037.06, -71634.05, 62393.17, 10770.05, -20854.24, 48461.78, -0.04, 0.65, 0.78
180, 74765.55, 29016.38, -42243.21, -71756.92, 62322.20, 10713.95, -21045.37, 48297.04, -0.04, 0.65, 0.78
181, 74661.10, 28931.18, -42423.34, -71848.20, 62283.71, 10694.59, -21196.27, 48174.82, -0.04, 0.65, 0.78
182, 74555.83, 28839.16, -42615.59, -71955.45, 62229.98, 10658.18, -21367.06, 48031.17, -0.05, 0.67, 0.80
183, 74447.98, 28733.86, -42832.11, -72092.71, 62145.27, 10586.88, -21575.40, 47847.30, -0.05, 0.67, 0.80
184, 74342.77, 28634.10, -43038.77, -72218.53, 62071.42, 10525.91, -21770.42, 47677.45, -0.05, 0.67, 0.80
185, 74239.93, 28550.40, -43218.41, -72311.35, 62033.31, 10506.37, -21922.75, 47553.58, -0.05, 0.67, 0.80
186, 74135.81, 28461.82, -43405.57, -72413.19, 61985.81, 10476.08, -22085.80, 47418.09, -0.05, 0.67, 0.80
187, 74026.74, 28356.07, -43618.55, -72546.30, 61904.68, 10407.17, -22290.54, 47239.58, -0.04, 0.67, 0.80
188, 73917.04, 28249.50, -43832.86, -72678.62, 61824.86, 10337.73, -22494.48, 47061.29, -0.04, 0.67, 0.80
189, 73813.52, 28162.84, -44017.16, -72773.08, 61783.13, 10311.55, -22650.38, 46934.26, -0.04, 0.67, 0.80
190, 73711.11, 28076.34, -44201.40, -72868.61, 61739.23, 10285.94, -22806.69, 46805.09, -0.04, 0.67, 0.80
191, 73604.88, 27973.16, -44410.03, -72996.97, 61661.84, 10223.93, -23004.08, 46631.91, -0.04, 0.67, 0.80
192, 73499.91, 27867.46, -44623.20, -73133.90, 61577.02, 10152.34, -23210.99, 46449.14, -0.04, 0.67, 0.80
193, 73396.38, 27780.40, -44810.24, -73233.59, 61531.24, 10122.52, -23373.53, 46314.96, -0.04, 0.67, 0.80
194, 73292.66, 27698.04, -44991.36, -73323.35, 61495.57, 10103.08, -23525.72, 46191.38, -0.04, 0.67, 0.80
195, 73186.74, 27599.35, -45196.43, -73446.73, 61427.33, 10047.65, -23716.09, 46026.29, -0.04, 0.67, 0.80
196, 73078.04, 27491.75, -45414.88, -73587.98, 61340.02, 9970.80, -23928.50, 45838.60, -0.04, 0.67, 0.80
197, 72974.69, 27400.49, -45606.57, -73694.98, 61286.04, 9933.47, -24099.87, 45694.50, -0.04, 0.67, 0.80
198, 72873.93, 27317.68, -45782.81, -73784.91, 61249.39, 9917.87, -24249.18, 45572.32, -0.03, 0.67, 0.80
199, 72770.37, 27221.67, -45979.48, -73901.15, 61185.06, 9869.03, -24432.60, 45415.86, -0.03, 0.67, 0.80
200, 72665.38, 27114.99, -46191.69, -74039.30, 61098.51, 9794.20, -24644.34, 45231.19, -0.03, 0.67, 0.80
201, 72562.25, 27020.89, -46386.20, -74153.30, 61040.36, 9749.79, -24823.11, 45079.11, -0.03, 0.67, 0.80
202, 72461.63, 26939.57, -46562.35, -74242.03, 61006.98, 9735.12, -24968.78, 44959.53, -0.03, 0.67, 0.80
203, 72357.63, 26847.01, -46758.73, -74353.73, 60948.96, 9691.89, -25142.16, 44811.58, -0.03, 0.67, 0.81
204, 72251.07, 26740.51, -46977.26, -74493.65, 60862.32, 9614.96, -25350.81, 44624.34, -0.03, 0.67, 0.81
205, 72146.27, 26643.37, -47179.08, -74614.01, 60794.53, 9560.91, -25535.95, 44462.96, -0.03, 0.67, 0.81
206, 72046.91, 26562.12, -47355.88, -74701.96, 60758.43, 9545.47, -25680.19, 44346.20, -0.03, 0.67, 0.81
207, 71945.62, 26475.19, -47544.04, -74806.99, 60705.93, 9511.14, -25844.56, 44209.27, -0.03, 0.67, 0.81
208, 71841.90, 26372.02, -47755.59, -74942.31, 60622.78, 9441.87, -26049.21, 44030.32, -0.03, 0.67, 0.81
209, 71738.50, 26272.64, -47961.52, -75070.21, 60547.50, 9381.23, -26243.47, 43859.51, -0.03, 0.67, 0.81
210, 71636.89, 26192.67, -48138.57, -75161.59, 60507.62, 9364.06, -26391.84, 43737.94, -0.03, 0.67, 0.81
211, 71534.86, 26108.87, -48322.37, -75260.76, 60459.37, 9334.67, -26550.90, 43606.26, -0.03, 0.67, 0.81
212, 71429.60, 26005.83, -48534.06, -75393.23, 60376.04, 9264.84, -26752.82, 43429.84, -0.03, 0.67, 0.81
213, 71326.07, 25903.10, -48744.35, -75525.07, 60293.94, 9197.07, -26955.04, 43252.99, -0.03, 0.67, 0.80
214, 71226.11, 25821.16, -48923.99, -75618.63, 60251.56, 9175.03, -27107.66, 43125.54, -0.03, 0.67, 0.80
215, 71126.38, 25739.80, -49103.23, -75712.87, 60207.66, 9153.22, -27260.21, 42999.46, -0.03, 0.67, 0.80
216, 71023.70, 25641.21, -49308.73, -75839.91, 60132.63, 9093.05, -27453.33, 42832.13, -0.03, 0.67, 0.80
217, 70920.14, 25536.98, -49522.99, -75976.75, 60045.07, 9020.78, -27659.93, 42651.66, -0.03, 0.67, 0.80
218, 70820.65, 25451.66, -49708.73, -76077.84, 59993.29, 8990.14, -27821.39, 42518.00, -0.03, 0.67, 0.79
219, 70721.34, 25371.80, -49888.51, -76170.07, 59951.80, 8969.84, -27969.83, 42396.90, -0.03, 0.67, 0.79
220, 70617.05, 25275.78, -50091.96, -76293.48, 59878.87, 8912.04, -28158.41, 42235.25, -0.03, 0.67, 0.79
221, 70512.33, 25170.68, -50307.00, -76434.38, 59790.24, 8835.13, -28368.47, 42051.95, -0.03, 0.67, 0.79
222, 70412.73, 25081.32, -50496.43, -76542.05, 59732.96, 8797.07, -28535.85, 41910.86, -0.03, 0.67, 0.79
223, 70316.41, 25003.09, -50671.65, -76630.78, 59693.48, 8781.33, -28681.11, 41794.95, -0.03, 0.67, 0.80
224, 70215.79, 24913.50, -50866.36, -76747.08, 59626.43, 8733.68, -28859.95, 41643.85, -0.03, 0.67, 0.80
225, 70112.86, 24809.63, -51081.31, -76887.23, 59533.47, 8656.56, -29068.80, 41459.76, -0.03, 0.67, 0.80
226, 70011.80, 24718.21, -51275.32, -77001.45, 59465.16, 8609.51, -29245.02, 41308.66, -0.03, 0.67, 0.80
227, 69912.30, 24640.67, -51449.82, -77089.40, 59424.34, 8593.55, -29386.96, 41193.13, -0.03, 0.67, 0.80
228, 69810.93, 24551.69, -51642.30, -77200.55, 59361.67, 8550.70, -29558.77, 41048.33, -0.03, 0.67, 0.80
229, 69708.45, 24448.16, -51856.36, -77340.16, 59271.13, 8475.25, -29767.31, 40867.46, -0.03, 0.67, 0.80
230, 69608.74, 24355.31, -52057.48, -77462.60, 59197.18, 8419.41, -29953.46, 40707.84, -0.03, 0.67, 0.80
231, 69513.88, 24279.58, -52231.58, -77552.02, 59157.69, 8403.81, -30097.88, 40592.06, -0.03, 0.67, 0.80
232, 69416.88, 24194.71, -52417.30, -77656.20, 59104.11, 8370.91, -30261.38, 40456.48, -0.03, 0.67, 0.80
233, 69313.90, 24092.07, -52629.97, -77792.25, 59016.36, 8298.60, -30464.78, 40278.76, -0.03, 0.67, 0.80
234, 69212.40, 23993.55, -52836.39, -77921.58, 58934.89, 8234.70, -30659.48, 40110.14, -0.03, 0.67, 0.80
235, 69115.68, 23913.97, -53013.57, -78012.68, 58891.93, 8213.95, -30810.29, 39990.60, -0.03, 0.67, 0.80
236, 69015.95, 23832.03, -53197.69, -78112.17, 58841.21, 8183.51, -30969.91, 39860.96, -0.03, 0.67, 0.80
237, 68913.02, 23732.28, -53406.34, -78243.84, 58756.05, 8114.71, -31170.18, 39687.55, -0.03, 0.67, 0.80
238, 68811.48, 23632.70, -53614.43, -78377.55, 58667.89, 8044.15, -31371.25, 39513.59, -0.03, 0.67, 0.80
239, 68716.01, 23552.32, -53793.02, -78473.58, 58619.44, 8020.77, -31522.26, 39390.77, -0.03, 0.66, 0.80
240, 68621.38, 23472.15, -53968.71, -78564.99, 58574.55, 7999.17, -31670.28, 39270.65, -0.03, 0.66, 0.80
241, 68521.10, 23374.80, -54172.85, -78692.47, 58495.72, 7938.13, -31861.31, 39106.25, -0.03, 0.66, 0.80
242, 68419.11, 23270.33, -54384.90, -78830.15, 58406.38, 7865.11, -32065.19, 38927.80, -0.03, 0.66, 0.80
243, 68320.92, 23185.06, -54568.77, -78932.55, 58352.60, 7833.35, -32224.29, 38795.50, -0.03, 0.66, 0.80
244, 68224.43, 23105.98, -54746.46, -79025.62, 58309.57, 7813.16, -32370.22, 38678.30, -0.03, 0.66, 0.80
245, 68126.39, 23011.41, -54947.67, -79148.42, 58236.37, 7757.69, -32553.35, 38520.88, -0.03, 0.66, 0.80
246, 68024.54, 22906.89, -55160.21, -79290.40, 58144.55, 7681.49, -32761.26, 38338.89, -0.03, 0.66, 0.80
247, 67924.98, 22816.93, -55348.77, -79399.80, 58084.56, 7642.46, -32928.95, 38198.57, -0.03, 0.66, 0.80
248, 67829.85, 22740.13, -55520.30, -79487.94, 58046.67, 7628.07, -33071.50, 38085.52, -0.03, 0.66, 0.80
249, 67730.43, 22649.85, -55714.18, -79605.06, 57980.27, 7582.29, -33249.20, 37938.26, -0.03, 0.67, 0.80
250, 67627.97, 22547.52, -55927.68, -79743.91, 57889.16, 7507.62, -33456.22, 37756.83, -0.03, 0.67, 0.80
251, 67530.23, 22457.71, -56123.53, -79858.49, 57824.14, 7459.69, -33632.80, 37606.25, -0.03, 0.67, 0.80
252, 67433.16, 22380.67, -56298.41, -79947.54, 57785.96, 7443.22, -33776.57, 37491.79, -0.03, 0.67, 0.80
253, 67333.11, 22292.87, -56490.59, -80058.16, 57726.71, 7403.68, -33946.91, 37351.84, -0.03, 0.67, 0.80
254, 67231.07, 22190.01, -56703.73, -80196.40, 57636.16, 7329.61, -34153.96, 37174.55, -0.04, 0.67, 0.80
255, 67132.99, 22097.65, -56903.45, -80318.63, 57562.67, 7273.62, -34339.25, 37017.15, -0.04, 0.67, 0.80
0, 67039.77, 22023.17, -57076.61, -80407.70, 57526.21, 7260.38, -34481.45, 36905.21, -0.04, 0.67, 0.80
1, 66943.45, 21940.09, -57260.43, -80511.00, 57473.53, 7229.63, -34642.21, 36773.96, -0.04, 0.67, 0.80
2, 66841.41, 21840.29, -57468.37, -80643.51, 57387.63, 7159.93, -34842.37, 36598.48, -0.04, 0.67, 0.80
3, 66741.84, 21743.71, -57672.68, -80770.84, 57306.65, 7098.31, -35035.38, 36430.86, -0.04, 0.67, 0.80
4, 66645.99, 21666.30, -57847.03, -80863.00, 57264.39, 7079.31, -35183.07, 36312.96, -0.04, 0.66, 0.80
5, 66548.23, 21584.25, -58025.55, -80960.66, 57217.74, 7052.56, -35336.25, 36187.94, -0.04, 0.66, 0.80
6, 66446.44, 21484.34, -58230.61, -81091.84, 57134.48, 6987.49, -35531.79, 36019.14, -0.04, 0.66, 0.80
7, 66346.37, 21383.85, -58439.62, -81226.51, 57050.32, 6919.94, -35732.13, 35845.56, -0.04, 0.66, 0.80
8, 66252.87, 21303.63, -58618.52, -81322.84, 57006.18, 6897.03, -35884.25, 35723.94, -0.04, 0.66, 0.80
9, 66158.50, 21225.86, -58793.91, -81414.82, 56963.82, 6874.70, -36033.27, 35604.23, -0.03, 0.67, 0.80
10, 66058.92, 21130.58, -58994.25, -81538.47, 56886.55, 6814.67, -36222.77, 35442.33, -0.03, 0.67, 0.80
11, 65958.19, 21029.08, -59205.12, -81674.73, 56798.20, 6741.04, -36426.95, 35264.70, -0.03, 0.67, 0.80
12, 65861.34, 20944.99, -59389.61, -81776.70, 56744.68, 6708.92, -36587.26, 35133.03, -0.03, 0.67, 0.80
13, 65765.60, 20867.72, -59564.09, -81866.79, 56705.84, 6692.34, -36731.87, 35020.31, -0.03, 0.67, 0.80
14, 65666.74, 20774.61, -59760.89, -81985.99, 56637.22, 6640.52, -36912.32, 34868.65, -0.03, 0.67, 0.80
15, 65567.01, 20672.19, -59971.61, -82123.21, 56548.04, 6567.14, -37117.15, 34691.56, -0.03, 0.67, 0.80
16, 65469.64, 20585.60, -60157.48, -82228.94, 56489.76, 6530.75, -37284.96, 34555.86, -0.03, 0.67, 0.80
17, 65373.84, 20508.46, -60329.21, -82315.95, 56452.75, 6519.53, -37427.01, 34443.79, -0.03, 0.67, 0.80
18, 65275.88, 20418.34, -60523.54, -82430.13, 56388.75, 6476.55, -37601.54, 34297.54, -0.03, 0.67, 0.80
19, 65173.41, 20316.04, -60735.86, -82568.08, 56298.95, 6402.21, -37808.20, 34119.89, -0.03, 0.67, 0.80
20, 65073.32, 20225.06, -60930.38, -82684.20, 56233.54, 6352.43, -37986.88, 33971.21, -0.03, 0.67, 0.80
21, 64978.55, 20150.43, -61101.87, -82769.29, 56197.36, 6337.08, -38127.58, 33860.46, -0.03, 0.67, 0.80
22, 64882.35, 20063.75, -61290.80, -82874.95, 56139.42, 6298.86, -38293.79, 33722.16, -0.03, 0.67, 0.80
23, 64783.85, 19961.72, -61503.15, -83011.88, 56051.42, 6226.23, -38498.66, 33545.41, -0.03, 0.67, 0.80
24, 64689.05, 19867.88, -61701.52, -83132.88, 55980.70, 6171.94, -38684.72, 33388.72, -0.03, 0.67, 0.80
25, 64597.21, 19791.69, -61873.92, -83221.22, 55944.05, 6157.15, -38827.32, 33276.00, -0.03, 0.67, 0.80
26, 64503.09, 19710.08, -62057.38, -83323.05, 55892.75, 6126.64, -38986.49, 33145.65, -0.03, 0.67, 0.80
27, 64403.15, 19611.98, -62265.95, -83456.60, 55806.74, 6059.36, -39185.33, 32972.84, -0.03, 0.67, 0.80
28, 64304.20, 19514.48, -62470.31, -83585.15, 55725.85, 5995.83, -39377.56, 32806.41, -0.03, 0.67, 0.80
29, 64210.66, 19435.27, -62645.25, -83676.19, 55684.54, 5978.04, -39522.58, 32689.02, -0.02, 0.68, 0.80
30, 64117.07, 19353.57, -62824.49, -83772.70, 55636.73, 5952.40, -39674.73, 32565.91, -0.02, 0.68, 0.80
31, 64019.51, 19256.70, -63029.28, -83901.07, 55556.51, 5888.19, -39868.16, 32398.74, -0.02, 0.68, 0.80
32, 63924.38, 19161.37, -63236.70, -84032.43, 55473.72, 5821.04, -40065.88, 32227.79, -0.02, 0.68, 0.80
33, 63829.90, 19083.54, -63415.00, -84128.74, 55426.38, 5796.95, -40218.48, 32105.75, -0.02, 0.68, 0.80
34, 63734.79, 19004.37, -63590.73, -84220.81, 55381.99, 5777.30, -40365.84, 31987.00, -0.02, 0.68, 0.80
35, 63636.78, 18908.86, -63791.90, -84344.57, 55306.24, 5720.12, -40553.53, 31825.80, -0.03, 0.68, 0.80
36, 63535.70, 18807.79, -64003.57, -84482.86, 55214.98, 5647.82, -40759.63, 31648.88, -0.03, 0.68, 0.80
37, 63440.24, 18723.90, -64186.47, -84586.69, 55160.44, 5616.68, -40921.39, 31520.29, -0.03, 0.68, 0.80
38, 63347.66, 18647.61, -64359.23, -84676.41, 55120.16, 5600.99, -41065.38, 31409.47, -0.03, 0.68, 0.80
39, 63251.19, 18556.95, -64555.84, -84794.54, 55049.17, 5552.17, -41245.83, 31258.29, -0.03, 0.68, 0.80
40, 63154.41, 18457.04, -64766.34, -84933.19, 54959.43, 5479.53, -41450.41, 31082.42, -0.03, 0.68, 0.79
41, 63060.39, 18372.20, -64953.63, -85042.48, 54898.45, 5440.55, -41618.59, 30945.18, -0.03, 0.68, 0.79
42, 62969.20, 18296.98, -65125.96, -85131.51, 54858.78, 5427.56, -41759.32, 30836.15, -0.03, 0.68, 0.79
43, 62874.11, 18208.71, -65317.79, -85246.16, 54792.55, 5383.46, -41931.65, 30692.52, -0.03, 0.68, 0.79
44, 62773.53, 18105.92, -65530.42, -85386.66, 54698.14, 5307.91, -42137.93, 30514.22, -0.03, 0.68, 0.79
45, 62677.73, 18016.11, -65727.00, -85502.95, 54628.69, 5259.19, -42317.30, 30367.50, -0.03, 0.68, 0.79
46, 62583.43, 17941.16, -65899.89, -85590.50, 54589.64, 5245.71, -42458.52, 30259.28, -0.03, 0.68, 0.79
47, 62488.08, 17859.40, -66089.13, -85695.89, 54530.07, 5208.40, -42623.03, 30124.79, -0.03, 0.68, 0.79
48, 62391.52, 17763.67, -66298.55, -85829.89, 54440.06, 5136.05, -42824.55, 29952.10, -0.03, 0.68, 0.79
49, 62296.10, 17671.58, -66498.83, -85953.27, 54363.15, 5079.28, -43010.59, 29795.28, -0.03, 0.68, 0.79
50, 62203.74, 17596.66, -66673.75, -86043.28, 54322.18, 5063.07, -43153.91, 29683.92, -0.03, 0.68, 0.79
51, 62109.15, 17516.90, -66857.10, -86146.08, 54268.09, 5030.68, -43312.56, 29556.56, -0.03, 0.68, 0.79
52, 62009.86, 17418.40, -67065.65, -86280.55, 54178.04, 4958.94, -43512.27, 29387.02, -0.03, 0.68, 0.79
53, 61914.55, 17321.42, -67270.45, -86409.13, 54094.48, 4894.12, -43706.53, 29222.29, -0.03, 0.68, 0.79
54, 61822.78, 17242.40, -67446.45, -86501.61, 54048.37, 4873.80, -43852.04, 29105.70, -0.03, 0.68, 0.79
55, 61729.93, 17161.18, -67623.95, -86599.87, 53997.81, 4849.52, -44002.78, 28985.43, -0.02, 0.68, 0.80
56, 61634.29, 17065.65, -67826.16, -86729.33, 53912.56, 4787.59, -44193.24, 28822.33, -0.02, 0.68, 0.80
57, 61538.84, 16966.18, -68032.78, -86863.91, 53821.32, 4718.45, -44391.41, 28651.74, -0.02, 0.68, 0.80
58, 61446.78, 16885.33, -68210.52, -86962.30, 53769.33, 4692.46, -44544.39, 28530.50, -0.02, 0.68, 0.80
59, 61354.48, 16807.26, -68386.03, -87056.42, 53721.28, 4671.60, -44692.76, 28415.03, -0.02, 0.68, 0.80
60, 61257.82, 16712.46, -68586.86, -87182.88, 53638.78, 4613.53, -44879.82, 28256.38, -0.04, 0.68, 0.80
61, 61162.28, 16613.20, -68797.77, -87321.09, 53545.01, 4541.00, -45081.68, 28082.33, -0.04, 0.68, 0.80
62, 61070.17, 16531.93, -68982.76, -87425.25, 53486.94, 4508.59, -45242.03, 27953.00, -0.04, 0.68, 0.80
63, 60978.37, 16456.58, -69154.80, -87515.08, 53443.09, 4491.40, -45384.59, 27842.38, -0.04, 0.68, 0.80
64, 60885.28, 16368.47, -69346.98, -87632.72, 53368.66, 4440.24, -45561.10, 27695.22, -0.04, 0.68, 0.80
65, 60790.24, 16270.46, -69556.91, -87773.13, 53271.94, 4365.23, -45763.41, 27520.54, -0.04, 0.68, 0.80
66, 60697.25, 16184.79, -69745.87, -87884.71, 53204.28, 4323.77, -45931.09, 27381.58, -0.04, 0.68, 0.80
67, 60604.74, 16108.77, -69919.09, -87975.44, 53157.81, 4306.71, -46071.61, 27271.05, -0.04, 0.68, 0.80
68, 60509.23, 16019.56, -70112.75, -88091.59, 53084.12, 4260.11, -46243.19, 27127.80, -0.04, 0.68, 0.80
69, 60413.03, 15919.67, -70323.46, -88232.32, 52985.84, 4186.59, -46445.52, 26953.39, -0.04, 0.68, 0.80
70, 60320.32, 15831.09, -70519.55, -88351.39, 52907.65, 4137.22, -46622.70, 26806.80, -0.04, 0.68, 0.80
71, 60229.97, 15756.71, -70693.98, -88442.41, 52859.35, 4119.54, -46764.39, 26698.13, -0.04, 0.68, 0.80
72, 60137.30, 15671.88, -70880.93, -88551.66, 52792.79, 4082.05, -46927.04, 26563.53, -0.04, 0.68, 0.80
73, 60040.00, 15572.39, -71091.77, -88691.30, 52695.35, 4011.24, -47127.29, 26389.72, -0.04, 0.68, 0.80
74, 59947.24, 15480.95, -71291.84, -88817.89, 52610.75, 3953.78, -47314.19, 26232.14, -0.04, 0.68, 0.80
75, 59856.70, 15406.39, -71466.84, -88910.92, 52560.57, 3936.10, -47456.64, 26120.27, -0.04, 0.68, 0.80
76, 59762.10, 15323.93, -71650.03, -89016.55, 52496.94, 3904.58, -47613.80, 25990.92, -0.04, 0.67, 0.80
77, 59666.50, 15226.66, -71855.58, -89151.78, 52402.16, 3835.85, -47810.07, 25820.27, -0.04, 0.67, 0.80
78, 59572.83, 15131.19, -72059.25, -89284.29, 52310.21, 3771.12, -48003.48, 25655.02, -0.04, 0.67, 0.80
79, 59481.88, 15054.88, -72234.94, -89380.64, 52255.76, 3749.75, -48150.89, 25539.77, -0.04, 0.67, 0.80
80, 59392.18, 14979.62, -72411.09, -89479.64, 52197.60, 3724.92, -48300.46, 25421.11, -0.04, 0.67, 0.80
81, 59298.62, 14884.79, -72613.23, -89611.13, 52106.72, 3661.39, -48491.17, 25260.69, -0.04, 0.67, 0.79
82, 59206.50, 14786.89, -72820.77, -89748.76, 52009.56, 3591.01, -48690.97, 25092.00, -0.04, 0.67, 0.79
83, 59117.32, 14708.18, -73002.90, -89850.77, 51947.31, 3563.63, -48845.85, 24968.44, -0.04, 0.67, 0.79
84, 59025.21, 14630.36, -73182.60, -89949.14, 51888.70, 3542.28, -48995.94, 24851.36, -0.04, 0.67, 0.79
85, 58932.03, 14538.71, -73383.66, -90077.21, 51798.22, 3483.88, -49182.42, 24697.25, -0.04, 0.67, 0.79
86, 58838.64, 14440.52, -73595.13, -90218.79, 51695.34, 3407.75, -49385.33, 24524.13, -0.04, 0.66, 0.79
87, 58750.08, 14358.60, -73782.63, -90328.85, 51627.48, 3370.24, -49546.20, 24394.89, -0.04, 0.66, 0.79
88, 58662.40, 14284.78, -73955.75, -90424.16, 51576.16, 3351.11, -49686.23, 24286.31, -0.04, 0.66, 0.79
89, 58568.18, 14195.75, -74149.88, -90545.04, 51493.57, 3299.43, -49862.61, 24139.23, -0.04, 0.66, 0.79
90, 58473.68, 14095.99, -74360.83, -90686.70, 51387.62, 3222.97, -50065.98, 23963.66, -0.04, 0.66, 0.79
91, 58382.71, 14008.69, -74551.40, -90802.57, 51308.41, 3177.79, -50234.70, 23820.77, -0.04, 0.66, 0.79
92, 58292.32, 13932.94, -74725.32, -90895.53, 51252.53, 3158.39, -50376.09, 23708.76, -0.04, 0.66, 0.79
93, 58201.48, 13847.71, -74916.25, -91013.08, 51174.43, 3112.66, -50547.86, 23568.48, -0.04, 0.66, 0.79
94, 58109.28, 13749.36, -75127.38, -91156.22, 51068.68, 3038.03, -50752.09, 23396.08, -0.04, 0.66, 0.79
95, 58021.39, 13661.70, -75325.76, -91280.99, 50981.54, 2985.92, -50932.52, 23248.74, -0.04, 0.66, 0.79
96, 57936.77, 13589.32, -75500.52, -91376.63, 50925.79, 2968.96, -51074.05, 23140.71, -0.04, 0.66, 0.79
97, 57846.96, 13506.22, -75688.66, -91489.91, 50851.51, 2930.20, -51236.99, 23008.62, -0.03, 0.67, 0.80
98, 57754.52, 13408.52, -75898.12, -91631.55, 50747.38, 2855.57, -51438.05, 22836.96, -0.03, 0.67, 0.80
99, 57662.80, 13316.30, -76102.05, -91763.43, 50653.01, 2792.78, -51625.31, 22679.31, -0.03, 0.67, 0.80
100, 57571.45, 13239.34, -76280.24, -91862.65, 50592.12, 2771.37, -51771.78, 22565.74, -0.03, 0.67, 0.80
101, 57481.00, 13158.52, -76465.00, -91971.77, 50523.05, 2736.23, -51928.82, 22437.89, -0.03, 0.67, 0.80
102, 57387.57, 13061.51, -76673.66, -92110.33, 50421.20, 2664.84, -52124.31, 22269.73, -0.03, 0.67, 0.79
103, 57294.87, 12966.00, -76880.25, -92249.09, 50319.18, 2596.92, -52319.02, 22104.06, -0.03, 0.67, 0.79
104, 57205.85, 12890.67, -77057.91, -92351.13, 50256.98, 2571.37, -52467.19, 21988.62, -0.03, 0.67, 0.79
105, 57116.04, 12814.05, -77237.81, -92454.05, 50191.31, 2543.32, -52618.29, 21870.18, -0.03, 0.67, 0.79
106, 57022.65, 12720.85, -77442.47, -92589.21, 50091.51, 2478.63, -52809.30, 21708.26, -0.03, 0.67, 0.79
107, 56929.98, 12623.24, -77652.80, -92732.80, 49984.11, 2404.91, -53009.26, 21539.48, -0.03, 0.67, 0.79
108, 56838.59, 12542.32, -77837.66, -92841.03, 49912.65, 2371.59, -53164.14, 21416.12, -0.03, 0.67, 0.79
109, 56749.49, 12467.60, -78014.89, -92939.49, 49848.21, 2348.81, -53308.51, 21301.73, -0.03, 0.67, 0.79
110, 56657.45, 12377.79, -78214.48, -93068.80, 49751.58, 2291.48, -53490.96, 21148.66, -0.03, 0.67, 0.79
111, 56563.75, 12279.74, -78424.80, -93212.34, 49640.68, 2214.30, -53693.74, 20976.29, -0.03, 0.67, 0.79
112, 56474.54, 12198.96, -78610.88, -93325.70, 49565.35, 2175.47, -53855.32, 20846.82, -0.03, 0.67, 0.80
113, 56385.54, 12125.24, -78784.95, -93424.16, 49506.25, 2155.49, -53997.21, 20738.53, -0.03, 0.67, 0.80
114, 56292.98, 12036.48, -78980.63, -93549.34, 49416.87, 2102.38, -54174.17, 20593.02, -0.03, 0.67, 0.80
115, 56198.86, 11937.69, -79193.16, -93696.97, 49304.10, 2024.51, -54379.11, 20417.58, -0.03, 0.67, 0.80
116, 56106.50, 11851.27, -79387.83, -93819.70, 49216.84, 1975.65, -54552.52, 20275.38, -0.03, 0.67, 0.80
117, 56018.45, 11776.87, -79562.02, -93918.34, 49155.73, 1955.71, -54694.76, 20166.44, -0.03, 0.67, 0.79
118, 55927.37, 11691.84, -79753.63, -94038.19, 49071.84, 1911.07, -54864.03, 20028.19, -0.03, 0.67, 0.79
119, 55833.94, 11594.39, -79965.58, -94182.98, 48960.87, 1834.05, -55065.89, 19854.94, -0.03, 0.67, 0.79
120, 55745.20, 11507.66, -80162.31, -94310.14, 48869.36, 1779.13, -55244.10, 19706.84, -0.03, 0.67, 0.79
121, 55656.47, 11434.24, -80338.02, -94408.71, 48808.54, 1758.61, -55384.87, 19595.28, -0.03, 0.67, 0.79
122, 55566.70, 11352.14, -80526.67, -94523.20, 48729.71, 1718.74, -55547.04, 19463.14, -0.03, 0.67, 0.79
123, 55474.99, 11255.35, -80737.72, -94667.99, 48619.69, 1643.34, -55747.39, 19292.95, -0.03, 0.67, 0.79
124, 55384.89, 11163.09, -80943.17, -94804.34, 48518.73, 1579.11, -55936.27, 19133.56, -0.03, 0.67, 0.79
125, 55296.89, 11089.06, -81119.77, -94905.77, 48453.24, 1556.66, -56080.68, 19020.13, -0.03, 0.67, 0.79
126, 55207.31, 11011.77, -81302.37, -95017.02, 48379.01, 1524.43, -56235.40, 18897.17, -0.03, 0.67, 0.79
127, 55114.50, 10918.65, -81510.93, -95160.56, 48272.75, 1455.61, -56429.79, 18733.20, -0.03, 0.67, 0.79
128, 55025.39, 10824.88, -81716.79, -95301.11, 48168.07, 1387.80, -56621.14, 18570.01, -0.03, 0.67, 0.79
129, 54938.33, 10747.90, -81897.05, -95407.03, 48099.66, 1360.51, -56769.34, 18451.54, -0.03, 0.67, 0.79
130, 54849.37, 10669.52, -82077.41, -95512.64, 48031.13, 1331.76, -56920.48, 18332.88, -0.03, 0.67, 0.79
131, 54757.37, 10575.19, -82282.53, -95650.29, 47928.93, 1266.36, -57110.92, 18171.72, -0.03, 0.67, 0.79
132, 54664.39, 10476.24, -82493.71, -95796.76, 47816.17, 1190.10, -57312.15, 18000.71, -0.03, 0.67, 0.79
133, 54574.38, 10395.75, -82678.41, -95907.91, 47741.71, 1155.79, -57469.71, 17876.59, -0.03, 0.67, 0.79
134, 54484.36, 10320.72, -82856.04, -96010.28, 47676.14, 1132.41, -57615.62, 17762.91, -0.03, 0.67, 0.79
135, 54392.36, 10231.47, -83055.84, -96142.41, 47580.49, 1074.58, -57797.38, 17611.54, -0.03, 0.67, 0.79
136, 54301.44, 10135.84, -83268.11, -96289.88, 47470.32, 997.89, -57998.21, 17440.24, -0.03, 0.67, 0.79
137, 54213.24, 10055.07, -83456.76, -96407.63, 47388.74, 958.82, -58161.81, 17308.10, -0.03, 0.67, 0.79
138, 54125.62, 9981.75, -83632.27, -96508.26, 47324.41, 940.36, -58304.19, 17197.86, -0.04, 0.67, 0.79
139, 54034.51, 9895.12, -83827.17, -96634.32, 47232.72, 889.35, -58479.76, 17052.73, -0.04, 0.67, 0.79
140, 53940.52, 9796.90, -84040.59, -96784.08, 47117.23, 811.46, -58684.10, 16877.31, -0.04, 0.67, 0.79
141, 53850.69, 9712.86, -84234.65, -96909.16, 47028.36, 762.93, -58856.30, 16735.85, -0.04, 0.67, 0.79
142, 53762.58, 9641.63, -84409.73, -97009.98, 46965.55, 742.93, -58998.63, 16627.82, -0.04, 0.67, 0.79
143, 53672.93, 9558.57, -84598.82, -97131.89, 46879.83, 697.69, -59166.00, 16493.66, -0.04, 0.67, 0.80
144, 53583.75, 9465.27, -84806.45, -97278.12, 46769.04, 623.19, -59363.82, 16325.80, -0.04, 0.67, 0.80
145, 53493.85, 9378.57, -85003.77, -97408.25, 46674.73, 569.37, -59543.05, 16178.28, -0.04, 0.67, 0.80
146, 53404.98, 9305.39, -85179.23, -97508.88, 46611.28, 549.20, -59685.93, 16068.87, -0.04, 0.67, 0.80
147, 53315.01, 9222.60, -85367.10, -97625.04, 46530.81, 509.80, -59847.78, 15937.82, -0.04, 0.67, 0.80
148, 53222.50, 9124.90, -85578.79, -97770.55, 46418.71, 434.88, -60046.04, 15768.62, -0.03, 0.68, 0.80
149, 53133.52, 9034.08, -85783.84, -97907.14, 46317.13, 370.99, -60233.08, 15610.84, -0.03, 0.68, 0.80
150, 53046.86, 8960.88, -85961.77, -98009.00, 46252.11, 348.02, -60377.96, 15497.22, -0.03, 0.68, 0.80
151, 52959.17, 8883.95, -86144.45, -98119.39, 46178.59, 315.49, -60531.02, 15374.07, -0.03, 0.68, 0.80
152, 52870.39, 8792.35, -86350.69, -98261.75, 46074.23, 248.57, -60722.69, 15212.55, -0.03, 0.68, 0.80
153, 52781.16, 8700.75, -86558.49, -98405.38, 45969.04, 181.67, -60915.61, 15049.52, -0.04, 0.67, 0.79
154, 52692.13, 8626.97, -86737.82, -98512.56, 45901.45, 154.56, -61063.82, 14933.11, -0.04, 0.67, 0.79
155, 52601.57, 8552.20, -86915.98, -98618.62, 45831.67, 126.35, -61213.98, 14818.36, -0.04, 0.67, 0.79
156, 52507.00, 8460.11, -87121.15, -98758.19, 45727.62, 62.00, -61402.00, 14661.54, -0.04, 0.67, 0.79
157, 52414.64, 8366.35, -87332.64, -98904.92, 45616.91, -12.03, -61599.33, 14491.89, -0.04, 0.67, 0.79
158, 52325.10, 8288.85, -87517.45, -99017.35, 45541.99, -44.64, -61754.11, 14368.04, -0.04, 0.67, 0.79
159, 52235.15, 8215.67, -87695.57, -99119.30, 45477.39, -67.10, -61896.76, 14258.31, -0.04, 0.67, 0.79
160, 52144.20, 8128.03, -87894.68, -99250.37, 45384.55, -122.00, -62075.96, 14110.10, -0.04, 0.67, 0.79
161, 52049.68, 8030.33, -88107.53, -99398.61, 45272.96, -197.19, -62275.63, 13939.96, -0.04, 0.67, 0.79
162, 51958.73, 7948.97, -88295.96, -99516.24, 45191.76, -237.53, -62438.68, 13809.38, -0.04, 0.67, 0.79
163, 51870.91, 7875.93, -88468.83, -99617.50, 45128.86, -258.25, -62579.65, 13699.76, -0.04, 0.67, 0.79
164, 51779.76, 7790.32, -88663.58, -99744.68, 45038.94, -308.45, -62754.06, 13555.95, -0.03, 0.67, 0.79
165, 51688.25, 7695.12, -88875.23, -99892.98, 44925.53, -383.15, -62954.16, 13384.38, -0.03, 0.67, 0.79
166, 51599.49, 7611.91, -89068.50, -100018.04, 44836.91, -430.34, -63124.12, 13244.77, -0.03, 0.67, 0.79
167, 51513.15, 7542.51, -89242.04, -100117.53, 44775.86, -448.96, -63263.17, 13137.37, -0.03, 0.67, 0.79
168, 51425.13, 7463.76, -89430.31, -100236.38, 44693.65, -490.35, -63428.26, 13005.34, -0.03, 0.67, 0.79
169, 51334.87, 7369.44, -89641.69, -100382.48, 44582.72, -563.58, -63627.41, 12838.66, -0.04, 0.67, 0.80
170, 51246.42, 7282.24, -89841.02, -100513.98, 44489.52, -619.66, -63807.43, 12690.34, -0.04, 0.67, 0.80
171, 51159.32, 7210.43, -90016.30, -100616.62, 44426.46, -640.47, -63949.46, 12582.11, -0.04, 0.67, 0.80
172, 51069.78, 7132.46, -90203.28, -100734.15, 44345.70, -678.69, -64111.39, 12454.53, -0.04, 0.67, 0.80
173, 50978.05, 7039.44, -90412.63, -100878.05, 44236.18, -749.95, -64307.06, 12289.23, -0.04, 0.67, 0.80
174, 50889.18, 6949.47, -90616.59, -101014.44, 44136.04, -810.34, -64492.20, 12133.06, -0.03, 0.67, 0.79
175, 50801.51, 6876.87, -90793.54, -101119.22, 44071.34, -829.74, -64635.32, 12020.83, -0.03, 0.67, 0.79
176, 50714.56, 6800.81, -90973.67, -101231.65, 44000.61, -857.55, -64785.50, 11898.91, -0.03, 0.67, 0.79
177, 50625.34, 6709.23, -91180.59, -101373.30, 43897.42, -924.62, -64977.17, 11738.49, -0.03, 0.67, 0.79
178, 50536.53, 6618.35, -91388.05, -101514.76, 43790.93, -993.00, -65169.73, 11577.69, -0.03, 0.67, 0.79
179, 50449.36, 6543.58, -91568.23, -101621.40, 43720.82, -1020.56, -65318.07, 11461.01, -0.04, 0.67, 0.79
180, 50360.25, 6467.10, -91750.31, -101729.09, 43651.23, -1047.29, -65466.89, 11345.70, -0.04, 0.67, 0.79
181, 50268.60, 6376.42, -91953.33, -101867.34, 43551.07, -1106.99, -65652.97, 11193.28, -0.04, 0.67, 0.79
182, 50178.23, 6283.54, -92161.85, -102014.09, 43441.39, -1179.08, -65850.41, 11027.32, -0.04, 0.67, 0.79
183, 50091.22, 6207.71, -92345.38, -102125.74, 43367.61, -1211.62, -66006.13, 10905.13, -0.04, 0.67, 0.79
184, 50006.33, 6138.10, -92520.51, -102226.23, 43303.82, -1232.01, -66149.83, 10796.99, -0.03, 0.68, 0.79
185, 49917.97, 6055.18, -92716.59, -102356.30, 43210.30, -1286.23, -66327.81, 10651.66, -0.03, 0.68, 0.79
186, 49827.47, 5963.42, -92927.27, -102503.53, 43100.51, -1359.70, -66526.05, 10482.83, -0.03, 0.68, 0.79
187, 49739.25, 5885.44, -93115.71, -102620.23, 43020.65, -1398.75, -66687.86, 10352.32, -0.03, 0.68, 0.79
188, 49650.82, 5813.71, -93289.12, -102720.73, 42958.49, -1418.33, -66828.52, 10244.23, -0.03, 0.68, 0.79
189, 49562.69, 5729.65, -93481.54, -102846.72, 42870.71, -1466.32, -67000.54, 10103.12, -0.03, 0.68, 0.79
190, 49472.59, 5635.01, -93692.48, -102996.55, 42759.38, -1541.15, -67199.42, 9933.65, -0.03, 0.67, 0.80
191, 49384.61, 5552.08, -93884.34, -103122.38, 42672.92, -1589.34, -67370.03, 9794.78, -0.03, 0.67, 0.80
192, 49300.08, 5483.02, -94055.47, -103221.16, 42613.67, -1606.84, -67507.85, 9691.25, -0.03, 0.67, 0.80
193, 49213.13, 5402.53, -94243.76, -103339.58, 42532.17, -1647.41, -67670.82, 9559.30, -0.03, 0.67, 0.80
194, 49124.06, 5307.27, -94454.20, -103486.00, 42420.01, -1721.46, -67868.99, 9393.28, -0.03, 0.67, 0.80
195, 49036.80, 5220.63, -94652.39, -103619.53, 42324.01, -1775.42, -68048.52, 9246.00, -0.03, 0.67, 0.80
196, 48950.16, 5150.53, -94827.74, -103722.91, 42260.91, -1793.30, -68189.42, 9137.66, -0.03, 0.67, 0.80
197, 48864.11, 5074.00, -95016.01, -103838.31, 42185.95, -1828.28, -68347.45, 9011.64, -0.03, 0.67, 0.80
198, 48774.88, 4980.75, -95226.95, -103981.88, 42079.91, -1897.04, -68541.71, 8847.85, -0.03, 0.67, 0.80
199, 48686.46, 4892.19, -95431.53, -104119.43, 41980.11, -1959.09, -68728.46, 8691.39, -0.03, 0.67, 0.80
200, 48602.46, 4822.25, -95606.03, -104220.57, 41917.79, -1980.63, -68871.55, 8582.20, -0.03, 0.67, 0.79
201, 48517.57, 4749.61, -95785.54, -104328.95, 41849.13, -2009.91, -69023.30, 8464.67, -0.03, 0.67, 0.79
202, 48427.29, 4659.31, -95990.91, -104468.38, 41748.12, -2074.40, -69212.22, 8307.00, -0.03, 0.67, 0.79
203, 48336.52, 4566.73, -96199.87, -104611.57, 41642.93, -2142.77, -69404.24, 8146.85, -0.03, 0.67, 0.79
204, 48247.89, 4491.65, -96382.44, -104720.91, 41573.26, -2169.44, -69555.38, 8029.73, -0.03, 0.67, 0.79
205, 48161.21, 4418.87, -96560.12, -104827.42, 41507.05, -2192.75, -69702.23, 7916.56, -0.03, 0.67, 0.80
206, 48072.21, 4330.61, -96761.16, -104964.55, 41409.02, -2251.76, -69888.54, 7765.22, -0.03, 0.67, 0.80
207, 47983.25, 4237.40, -96972.17, -105112.63, 41300.19, -2322.99, -70087.05, 7598.70, -0.03, 0.67, 0.80
208, 47898.40, 4161.92, -97155.03, -105224.84, 41228.20, -2353.82, -70241.52, 7477.80, -0.03, 0.67, 0.80
209, 47811.61, 4092.45, -97329.82, -105324.45, 41167.35, -2372.24, -70382.98, 7370.08, -0.03, 0.67, 0.80
210, 47722.40, 4006.10, -97525.73, -105454.77, 41074.77, -2424.52, -70560.45, 7225.67, -0.04, 0.67, 0.80
211, 47632.97, 3911.47, -97737.78, -105603.38, 40962.68, -2497.29, -70760.63, 7058.46, -0.04, 0.67, 0.80
212, 47544.24, 3832.18, -97927.37, -105724.17, 40880.58, -2538.17, -70926.87, 6925.04, -0.04, 0.67, 0.80
213, 47457.91, 3762.85, -98100.10, -105826.25, 40820.86, -2556.23, -71068.73, 6819.14, -0.04, 0.67, 0.80
214, 47369.74, 3681.02, -98290.59, -105951.20, 40735.88, -2602.23, -71240.26, 6682.03, -0.04, 0.67, 0.80
215, 47280.09, 3587.16, -98500.36, -106098.63, 40625.59, -2674.83, -71437.85, 6515.04, -0.04, 0.67, 0.80
216, 47193.56, 3506.01, -98693.92, -106223.89, 40539.11, -2721.30, -71606.13, 6376.55, -0.04, 0.67, 0.80
217, 47107.75, 3438.61, -98865.98, -106322.59, 40481.58, -2739.59, -71744.78, 6270.31, -0.04, 0.67, 0.80
218, 47019.08, 3360.45, -99055.24, -106441.28, 40402.90, -2780.49, -71908.95, 6138.53, -0.04, 0.67, 0.80
219, 46929.52, 3266.82, -99266.93, -106589.23, 40296.04, -2851.90, -72107.80, 5971.36, -0.04, 0.67, 0.80
220, 46840.36, 3179.78, -99467.18, -106723.41, 40202.65, -2908.95, -72291.59, 5823.25, -0.04, 0.67, 0.80
221, 46754.62, 3109.84, -99641.13, -106824.59, 40140.51, -2928.84, -72434.71, 5716.88, -0.05, 0.67, 0.79
222, 46668.41, 3033.89, -99824.72, -106939.10, 40067.38, -2963.48, -72591.84, 5594.71, -0.05, 0.67, 0.79
223, 46578.84, 2943.77, -100031.72, -107083.00, 39963.15, -3031.14, -72784.34, 5433.69, -0.05, 0.67, 0.79
224, 46491.47, 2857.58, -100233.69, -107221.13, 39865.88, -3092.30, -72968.18, 5279.44, -0.05, 0.67, 0.79
225, 46408.16, 2787.55, -100410.27, -107325.01, 39803.32, -3113.93, -73112.30, 5168.93, -0.05, 0.67, 0.79
226, 46323.45, 2716.25, -100591.77, -107433.79, 39735.39, -3141.38, -73263.41, 5052.25, -0.04, 0.68, 0.80
227, 46234.63, 2627.16, -100798.12, -107572.33, 39632.73, -3204.82, -73452.39, 4895.23, -0.04, 0.68, 0.80
228, 46144.35, 2534.98, -101008.40, -107717.05, 39526.62, -3274.04, -73648.93, 4731.17, -0.04, 0.68, 0.80
229, 46058.09, 2461.51, -101187.91, -107824.61, 39460.17, -3302.29, -73799.60, 4614.29, -0.04, 0.68, 0.80
230, 45973.09, 2390.41, -101363.68, -107927.09, 39396.82, -3324.58, -73945.09, 4503.34, -0.04, 0.68, 0.80
231, 45885.98, 2303.64, -101563.02, -108060.51, 39302.81, -3380.86, -74127.93, 4353.96, -0.04, 0.67, 0.79
232, 45799.66, 2212.35, -101770.98, -108206.00, 39197.07, -3450.53, -74324.04, 4190.35, -0.04, 0.67, 0.79
233, 45713.77, 2136.40, -101955.16, -108319.52, 39123.91, -3484.21, -74480.73, 4067.75, -0.04, 0.67, 0.79
234, 45628.94, 2068.27, -102130.50, -108420.95, 39063.83, -3503.08, -74622.93, 3961.56, -0.04, 0.67, 0.79
235, 45540.47, 1986.44, -102327.18, -108549.73, 38973.64, -3554.71, -74800.20, 3818.86, -0.04, 0.67, 0.79
236, 45448.71, 1894.80, -102538.58, -108696.80, 38861.79, -3630.28, -75000.77, 3650.82, -0.03, 0.67, 0.79
237, 45360.58, 1817.69, -102727.70, -108815.59, 38780.41, -3672.03, -75166.43, 3519.08, -0.03, 0.67, 0.79
238, 45275.31, 1748.98, -102900.07, -108913.19, 38722.41, -3688.35, -75305.59, 3414.25, -0.03, 0.67, 0.79
239, 45187.45, 1667.24, -103092.66, -109036.32, 38639.88, -3733.34, -75474.82, 3278.13, -0.03, 0.67, 0.79
240, 45099.29, 1575.33, -103303.26, -109182.45, 38533.40, -3804.62, -75671.65, 3111.85, -0.03, 0.67, 0.79
241, 45013.30, 1495.42, -103496.53, -109308.54, 38448.71, -3852.14, -75844.52, 2971.24, -0.02, 0.67, 0.80
242, 44929.38, 1428.25, -103668.44, -109408.12, 38391.85, -3868.28, -75983.44, 2866.30, -0.02, 0.67, 0.80
243, 44842.79, 1350.87, -103856.17, -109525.84, 38313.95, -3906.88, -76143.49, 2736.03, -0.02, 0.67, 0.80
244, 44753.45, 1259.68, -104066.48, -109671.65, 38205.03, -3978.48, -76339.19, 2568.35, -0.02, 0.67, 0.80
245, 44666.00, 1175.93, -104267.38, -109805.58, 38109.59, -4034.62, -76519.54, 2419.84, -0.02, 0.67, 0.80
246, 44581.78, 1108.65, -104443.30, -109906.02, 38050.69, -4052.39, -76660.71, 2312.82, -0.03, 0.67, 0.80
247, 44497.52, 1035.40, -104627.41, -110016.78, 37980.29, -4083.84, -76815.34, 2190.16, -0.03, 0.67, 0.80
248, 44412.80, 947.00, -104833.39, -110158.22, 37878.58, -4148.86, -77006.07, 2030.75, -0.03, 0.67, 0.80
249, 44328.00, 860.18, -105037.02, -110297.16, 37781.42, -4210.55, -77193.22, 1874.75, -0.03, 0.67, 0.80
250, 44244.50, 790.20, -105213.46, -110401.41, 37720.71, -4230.89, -77337.75, 1763.75, -0.03, 0.67, 0.80
251, 44158.98, 717.11, -105393.70, -110509.14, 37654.62, -4256.87, -77488.02, 1647.68, -0.03, 0.67, 0.80
252, 44067.38, 626.05, -105599.78, -110647.59, 37555.11, -4321.58, -77677.05, 1490.50, -0.03, 0.67, 0.80
253, 43977.37, 533.80, -105809.24, -110789.19, 37451.51, -4390.15, -77871.28, 1327.98, -0.03, 0.67, 0.80
254, 43891.92, 461.59, -105989.87, -110896.14, 37386.55, -4415.83, -78021.24, 1212.49, -0.03, 0.67, 0.80
255, 43808.14, 392.00, -106163.83, -110998.13, 37326.65, -4436.51, -78164.02, 1104.53, -0.03, 0.67, 0.80
0, 43721.71, 307.74, -106361.84, -111128.06, 37236.46, -4491.63, -78342.75, 958.47, -0.03, 0.67, 0.80
1, 43635.03, 217.21, -106570.34, -111271.92, 37131.14, -4561.88, -78538.71, 794.34, -0.02, 0.68, 0.79
2, 43549.42, 143.63, -106754.59, -111384.41, 37058.36, -4595.52, -78695.20, 671.25, -0.02, 0.68, 0.79
3, 43463.79, 75.64, -106928.82, -111482.67, 36998.15, -4614.74, -78836.09, 565.70, -0.02, 0.68, 0.79
4, 43375.21, -7.87, -107126.03, -111610.37, 36909.03, -4667.31, -79011.49, 422.58, -0.02, 0.68, 0.79
5, 43286.12, -99.49, -107335.94, -111756.20, 36800.00, -4740.63, -79208.81, 255.41, -0.02, 0.68, 0.79
6, 43199.80, -177.94, -107524.16, -111873.85, 36720.54, -4780.50, -79373.12, 126.31, -0.02, 0.67, 0.78
7, 43118.28, -245.22, -107696.09, -111970.32, 36665.15, -4795.95, -79510.74, 23.98, -0.02, 0.67, 0.78
8, 43034.62, -324.32, -107884.87, -112090.69, 36586.03, -4839.13, -79676.63, -109.64, -0.02, 0.67, 0.78
9, 42946.15, -416.75, -108095.27, -112235.98, 36479.45, -4911.15, -79874.25, -276.98, -0.02, 0.67, 0.78
10, 42859.09, -498.82, -108290.98, -112362.57, 36394.23, -4959.67, -80048.21, -418.85, -0.02, 0.67, 0.78
11, 42773.21, -566.97, -108465.10, -112460.45, 36338.10, -4975.32, -80186.59, -523.16, -0.02, 0.67, 0.78
12, 42686.49, -644.27, -108653.41, -112575.43, 36263.04, -5013.32, -80347.74, -650.93, -0.02, 0.67, 0.78
13, 42598.20, -734.93, -108860.93, -112718.97, 36159.89, -5083.17, -80544.48, -814.83, -0.02, 0.67, 0.78
14, 42510.89, -819.66, -109059.27, -112851.70, 36069.86, -5138.76, -80726.32, -962.26, -0.02, 0.67, 0.78
15, 42427.48, -887.86, -109234.02, -112951.36, 36013.89, -5155.34, -80866.58, -1067.50, -0.02, 0.67, 0.78
16, 42344.26, -960.25, -109416.28, -113059.50, 35946.34, -5185.02, -81019.35, -1186.30, -0.02, 0.68, 0.79
17, 42256.46, -1048.56, -109622.02, -113199.51, 35846.45, -5251.63, -81209.56, -1344.88, -0.02, 0.68, 0.79
18, 42169.27, -1135.96, -109826.27, -113336.13, 35747.57, -5315.58, -81397.34, -1501.72, -0.02, 0.68, 0.79
19, 42086.68, -1204.74, -110004.09, -113439.48, 35684.40, -5339.21, -81543.77, -1614.18, -0.02, 0.68, 0.79
20, 42001.92, -1276.15, -110183.52, -113544.31, 35617.79, -5366.34, -81692.02, -1729.85, -0.02, 0.68, 0.79
21, 41915.35, -1362.03, -110385.12, -113678.84, 35521.12, -5427.32, -81877.50, -1882.06, -0.02, 0.68, 0.80
22, 41829.12, -1451.70, -110591.38, -113819.44, 35419.76, -5494.89, -82071.27, -2042.12, -0.02, 0.68, 0.80
23, 41744.81, -1523.85, -110771.64, -113926.30, 35356.28, -5522.31, -82222.05, -2157.52, -0.02, 0.68, 0.80
24, 41661.73, -1591.58, -110945.41, -114025.77, 35298.86, -5542.54, -82362.51, -2265.35, -0.02, 0.68, 0.80
25, 41575.43, -1674.66, -111142.59, -114154.18, 35208.89, -5595.96, -82540.23, -2412.18, -0.02, 0.68, 0.80
26, 41487.59, -1763.80, -111350.17, -114298.13, 35104.91, -5665.45, -82737.23, -2577.07, -0.02, 0.68, 0.80
27, 41402.87, -1838.81, -111535.47, -114411.53, 35033.12, -5699.52, -82896.11, -2700.11, -0.01, 0.69, 0.81
28, 41316.84, -1908.30, -111711.58, -114510.69, 34973.68, -5718.47, -83038.27, -2805.84, -0.01, 0.69, 0.81
29, 41228.33, -1990.15, -111908.27, -114634.83, 34887.52, -5767.60, -83212.05, -2946.27, -0.01, 0.69, 0.81
30, 41141.18, -2080.59, -112120.46, -114780.59, 34780.88, -5839.50, -83410.83, -3111.94, -0.01, 0.69, 0.81
31, 41056.75, -2157.79, -112309.66, -114899.43, 34703.32, -5880.99, -83575.70, -3243.28, -0.01, 0.69, 0.81
32, 40973.99, -2224.42, -112479.98, -114993.77, 34651.21, -5894.89, -83713.00, -3345.14, -0.02, 0.68, 0.80
33, 40889.36, -2302.54, -112668.81, -115112.06, 34572.25, -5936.09, -83878.77, -3476.12, -0.02, 0.68, 0.80
34, 40803.11, -2393.89, -112876.91, -115255.25, 34467.53, -6006.41, -84075.48, -3639.53, -0.02, 0.68, 0.80
35, 40718.64, -2473.98, -113070.56, -115381.38, 34382.82, -6054.86, -84250.67, -3780.82, -0.02, 0.68, 0.80
36, 40633.04, -2540.79, -113243.74, -115481.36, 34327.56, -6071.23, -84390.38, -3887.08, -0.02, 0.68, 0.80
37, 40546.44, -2616.03, -113431.63, -115596.85, 34255.90, -6106.81, -84548.80, -4014.10, -0.02, 0.68, 0.80
38, 40457.68, -2706.15, -113640.02, -115739.32, 34153.49, -6175.65, -84742.08, -4178.23, -0.02, 0.68, 0.80
39, 40371.34, -2788.69, -113838.17, -115871.64, 34060.77, -6232.52, -84923.64, -4327.97, -0.02, 0.68, 0.80
40, 40289.55, -2853.13, -114011.48, -115969.72, 34004.07, -6248.54, -85062.87, -4432.33, -0.02, 0.68, 0.80
41, 40205.18, -2925.37, -114192.42, -116077.05, 33935.85, -6276.95, -85214.84, -4550.39, -0.02, 0.68, 0.80
42, 40116.21, -3013.62, -114397.72, -116215.19, 33835.15, -6341.93, -85405.77, -4708.04, -0.02, 0.68, 0.80
43, 40028.80, -3100.46, -114603.54, -116351.48, 33736.67, -6404.94, -85595.13, -4864.30, -0.02, 0.68, 0.80
44, 39944.27, -3170.77, -114781.88, -116451.94, 33674.71, -6427.67, -85741.89, -4975.01, -0.02, 0.68, 0.80
45, 39859.57, -3240.96, -114959.80, -116553.21, 33612.29, -6450.74, -85890.60, -5089.83, -0.02, 0.68, 0.80
46, 39771.93, -3325.47, -115162.15, -116685.83, 33518.18, -6508.18, -86075.89, -5243.18, -0.02, 0.68, 0.80
47, 39685.72, -3413.76, -115369.17, -116826.73, 33416.48, -6573.80, -86267.12, -5403.06, -0.02, 0.68, 0.79
48, 39603.69, -3484.19, -115547.54, -116932.14, 33352.64, -6598.97, -86415.33, -5517.13, -0.02, 0.68, 0.79
