%OpenBCI Raw EEG Data
%
%Sample Rate = 250.0 Hz
%First Column = SampleIndex
%Other Columns = EEG data in microvolts followed by Accel Data (in G) interleaved with Aux Data
0, 27372.04, 27401.61, 27479.03, 27442.87, 27447.07, 27479.37, 27409.59, 27417.32, 0.09, 0.99, 0.38
1, 27350.13, 27379.81, 27457.13, 27420.96, 27425.16, 27457.51, 27387.77, 27395.46, 0.09, 0.99, 0.38
2, 27307.17, 27336.76, 27414.08, 27377.94, 27382.25, 27414.53, 27344.88, 27352.52, 0.09, 0.98, 0.38
3, 27281.67, 27311.24, 27388.51, 27352.41, 27356.79, 27389.13, 27319.33, 27327.04, 0.09, 0.98, 0.38
4, 27274.60, 27304.26, 27381.58, 27345.44, 27349.77, 27382.18, 27312.29, 27319.93, 0.09, 0.98, 0.38
5, 27255.47, 27285.06, 27362.29, 27326.26, 27330.62, 27362.92, 27293.07, 27300.67, 0.09, 0.98, 0.38
6, 27212.89, 27242.48, 27319.62, 27283.66, 27287.99, 27320.29, 27250.42, 27258.06, 0.09, 0.98, 0.38
7, 27181.04, 27210.72, 27287.79, 27251.87, 27256.19, 27288.60, 27218.66, 27226.32, 0.09, 0.99, 0.37
8, 27173.46, 27203.17, 27280.26, 27244.25, 27248.68, 27281.06, 27211.01, 27218.79, 0.09, 0.99, 0.37
9, 27160.39, 27189.98, 27267.09, 27231.11, 27235.51, 27267.81, 27197.80, 27205.63, 0.09, 0.99, 0.37
10, 27121.58, 27151.24, 27228.40, 27192.42, 27196.84, 27229.10, 27159.18, 27166.89, 0.09, 0.99, 0.37
11, 27089.08, 27118.79, 27195.88, 27159.94, 27164.30, 27196.66, 27126.77, 27134.41, 0.09, 0.99, 0.37
12, 27080.99, 27110.63, 27187.63, 27151.69, 27156.27, 27188.53, 27118.52, 27126.23, 0.09, 0.98, 0.37
13, 27071.07, 27100.73, 27177.73, 27141.74, 27146.21, 27178.42, 27108.57, 27116.22, 0.09, 0.98, 0.37
14, 27037.83, 27067.54, 27144.49, 27108.55, 27112.98, 27145.25, 27075.36, 27083.00, 0.09, 0.98, 0.37
15, 27002.00, 27031.71, 27108.62, 27072.68, 27077.26, 27109.45, 27039.53, 27047.15, 0.09, 0.98, 0.37
16, 26990.89, 27020.60, 27097.42, 27061.50, 27066.08, 27098.23, 27028.35, 27036.09, 0.09, 0.98, 0.37
17, 26985.01, 27014.72, 27091.61, 27055.69, 27060.23, 27092.46, 27022.61, 27030.23, 0.09, 0.98, 0.37
18, 26951.08, 26980.81, 27057.70, 27021.87, 27026.34, 27058.62, 26988.59, 26996.28, 0.09, 0.98, 0.37
19, 26907.45, 26937.18, 27013.94, 26978.06, 26982.58, 27014.79, 26944.94, 26952.54, 0.09, 0.98, 0.37
20, 26888.66, 26918.32, 26995.07, 26959.20, 26963.71, 26995.94, 26926.07, 26933.72, 0.09, 0.98, 0.37
21, 26885.01, 26914.81, 26991.47, 26955.73, 26960.20, 26992.41, 26922.52, 26930.12, 0.09, 0.98, 0.37
22, 26858.10, 26887.81, 26964.56, 26928.71, 26933.20, 26965.50, 26895.61, 26903.12, 0.09, 0.98, 0.37
23, 26812.68, 26842.39, 26919.12, 26883.34, 26887.81, 26920.08, 26850.17, 26857.79, 0.09, 0.99, 0.37
24, 26790.17, 26819.95, 26896.61, 26860.74, 26865.34, 26897.57, 26827.68, 26835.35, 0.09, 0.99, 0.37
25, 26786.66, 26816.46, 26893.15, 26857.30, 26861.97, 26894.15, 26824.21, 26831.93, 0.09, 0.99, 0.37
26, 26766.57, 26796.34, 26872.96, 26837.13, 26841.79, 26874.04, 26803.99, 26811.77, 0.09, 0.99, 0.37
27, 26722.18, 26751.88, 26828.53, 26792.79, 26797.44, 26829.69, 26759.60, 26767.38, 0.09, 0.99, 0.37
28, 26691.18, 26720.86, 26797.46, 26761.81, 26766.41, 26798.64, 26728.55, 26736.28, 0.09, 0.99, 0.37
29, 26687.96, 26717.73, 26794.24, 26758.57, 26763.15, 26795.40, 26725.40, 26733.09, 0.09, 0.99, 0.37
30, 26669.61, 26699.31, 26775.91, 26740.24, 26744.80, 26777.01, 26707.00, 26714.58, 0.09, 0.99, 0.37
31, 26623.56, 26653.34, 26729.91, 26694.20, 26698.80, 26731.10, 26661.00, 26668.58, 0.09, 0.99, 0.37
32, 26592.47, 26622.29, 26698.73, 26663.06, 26667.82, 26699.96, 26630.00, 26637.56, 0.09, 0.99, 0.37
33, 26585.95, 26615.72, 26692.27, 26656.62, 26661.25, 26693.48, 26623.52, 26631.05, 0.09, 0.98, 0.37
34, 26574.97, 26604.77, 26681.39, 26645.63, 26650.23, 26682.44, 26612.52, 26620.14, 0.09, 0.98, 0.37
35, 26537.40, 26567.13, 26643.75, 26607.92, 26612.63, 26644.80, 26574.84, 26582.53, 0.09, 0.98, 0.37
36, 26502.96, 26532.73, 26609.17, 26573.56, 26578.19, 26610.49, 26540.42, 26548.15, 0.09, 0.98, 0.37
37, 26494.33, 26524.12, 26600.56, 26564.91, 26569.50, 26601.88, 26531.86, 26539.52, 0.09, 0.98, 0.37
38, 26486.50, 26516.30, 26592.70, 26557.18, 26561.72, 26594.02, 26523.94, 26531.70, 0.09, 0.98, 0.38
39, 26450.74, 26480.58, 26556.93, 26521.46, 26525.98, 26558.32, 26488.29, 26495.94, 0.09, 0.98, 0.38
40, 26408.56, 26438.49, 26514.78, 26479.28, 26484.00, 26516.16, 26446.16, 26453.71, 0.09, 0.98, 0.38
41, 26398.55, 26428.39, 26504.70, 26469.11, 26473.92, 26506.02, 26436.03, 26443.57, 0.09, 0.98, 0.38
42, 26393.36, 26423.09, 26499.36, 26463.84, 26468.58, 26500.88, 26430.85, 26438.45, 0.09, 0.98, 0.38
43, 26359.72, 26389.45, 26465.69, 26430.20, 26434.89, 26467.24, 26397.16, 26404.83, 0.10, 0.97, 0.37
44, 26316.54, 26346.27, 26422.46, 26387.02, 26391.71, 26424.05, 26353.91, 26361.51, 0.10, 0.97, 0.37
45, 26294.59, 26324.41, 26400.56, 26365.20, 26369.83, 26402.13, 26332.05, 26339.67, 0.10, 0.97, 0.37
46, 26288.82, 26318.73, 26394.88, 26359.43, 26364.11, 26396.38, 26326.29, 26333.95, 0.10, 0.97, 0.37
47, 26266.56, 26296.49, 26372.69, 26337.24, 26341.91, 26374.16, 26304.18, 26311.78, 0.10, 0.97, 0.37
48, 26223.54, 26253.33, 26329.59, 26294.14, 26298.77, 26331.05, 26261.02, 26268.64, 0.10, 0.97, 0.37
49, 26194.25, 26224.05, 26300.22, 26264.93, 26269.54, 26301.83, 26231.76, 26239.45, 0.10, 0.98, 0.37
50, 26190.39, 26220.25, 26296.40, 26261.04, 26265.67, 26298.01, 26228.05, 26235.54, 0.10, 0.98, 0.37
51, 26173.18, 26203.02, 26279.15, 26243.81, 26248.46, 26280.82, 26210.73, 26218.28, 0.10, 0.98, 0.37
52, 26129.99, 26159.77, 26235.81, 26200.60, 26205.23, 26237.53, 26167.39, 26175.10, 0.10, 0.98, 0.37
53, 26098.34, 26128.16, 26204.29, 26168.88, 26173.65, 26205.92, 26135.80, 26143.52, 0.10, 0.98, 0.37
54, 26092.96, 26122.77, 26198.93, 26163.50, 26168.26, 26200.54, 26130.42, 26138.04, 0.09, 0.99, 0.37
55, 26080.21, 26109.94, 26186.10, 26150.76, 26155.47, 26187.73, 26117.56, 26125.23, 0.09, 0.99, 0.37
56, 26042.15, 26071.90, 26148.03, 26112.67, 26117.41, 26149.71, 26079.54, 26087.26, 0.09, 0.99, 0.37
57, 26003.77, 26033.50, 26109.63, 26074.36, 26079.05, 26111.29, 26041.19, 26048.90, 0.09, 0.99, 0.37
58, 25993.11, 26022.95, 26098.95, 26063.77, 26068.37, 26100.67, 26030.46, 26038.17, 0.09, 0.99, 0.37
59, 25985.33, 26015.15, 26091.10, 26055.83, 26060.57, 26092.84, 26022.75, 26030.42, 0.09, 0.98, 0.37
60, 25952.14, 25982.03, 26057.98, 26022.77, 26027.55, 26059.74, 25989.65, 25997.29, 0.09, 0.98, 0.37
61, 25908.11, 25937.95, 26013.99, 25978.78, 25983.52, 26015.73, 25945.55, 25953.26, 0.09, 0.98, 0.37
62, 25893.69, 25923.64, 25999.62, 25964.43, 25969.11, 26001.31, 25931.20, 25938.84, 0.09, 0.98, 0.37
63, 25887.92, 25917.92, 25993.83, 25958.60, 25963.38, 25995.57, 25925.43, 25933.07, 0.09, 0.98, 0.37
64, 25856.61, 25886.52, 25962.40, 25927.17, 25932.00, 25964.14, 25894.03, 25901.74, 0.09, 0.98, 0.37
65, 25816.67, 25846.57, 25922.50, 25887.32, 25892.06, 25924.31, 25854.15, 25861.82, 0.09, 0.98, 0.37
66, 25798.54, 25828.56, 25904.42, 25869.26, 25874.00, 25906.23, 25836.18, 25843.78, 0.09, 0.98, 0.37
67, 25793.98, 25823.95, 25899.86, 25864.61, 25869.42, 25901.63, 25831.55, 25839.15, 0.09, 0.98, 0.37
68, 25768.61, 25798.52, 25874.42, 25839.13, 25844.00, 25876.26, 25806.14, 25813.67, 0.09, 0.98, 0.37
69, 25725.07, 25755.04, 25830.86, 25795.63, 25800.53, 25832.83, 25762.60, 25770.20, 0.08, 0.98, 0.38
70, 25701.60, 25731.53, 25807.30, 25772.19, 25777.06, 25809.36, 25739.13, 25746.71, 0.08, 0.98, 0.38
71, 25695.88, 25725.90, 25801.58, 25766.49, 25771.29, 25803.54, 25733.43, 25741.01, 0.08, 0.98, 0.38
72, 25674.42, 25704.37, 25780.12, 25745.01, 25749.81, 25782.11, 25711.86, 25719.57, 0.08, 0.98, 0.38
73, 25631.48, 25661.50, 25737.14, 25702.00, 25706.88, 25739.11, 25668.99, 25676.59, 0.08, 0.98, 0.38
74, 25600.88, 25630.86, 25706.54, 25671.40, 25676.37, 25708.55, 25638.43, 25645.94, 0.09, 0.99, 0.37
75, 25594.85, 25624.78, 25700.50, 25665.41, 25670.26, 25702.63, 25632.38, 25639.91, 0.09, 0.99, 0.37
76, 25580.47, 25610.31, 25685.95, 25650.88, 25655.76, 25688.14, 25617.91, 25625.31, 0.09, 0.99, 0.37
77, 25541.58, 25571.47, 25646.99, 25611.99, 25616.93, 25649.27, 25579.02, 25586.38, 0.09, 0.99, 0.37
78, 25508.35, 25538.32, 25613.78, 25578.87, 25583.78, 25616.06, 25545.67, 25553.25, 0.09, 0.99, 0.37
79, 25498.29, 25528.28, 25603.77, 25568.76, 25573.72, 25605.91, 25535.71, 25543.19, 0.09, 0.99, 0.37
80, 25486.60, 25516.66, 25592.14, 25557.12, 25562.17, 25594.27, 25524.15, 25531.57, 0.09, 0.98, 0.37
81, 25453.41, 25483.38, 25558.84, 25523.84, 25528.89, 25561.03, 25490.85, 25498.29, 0.09, 0.98, 0.37
82, 25413.87, 25443.84, 25519.34, 25484.32, 25489.35, 25521.53, 25451.33, 25458.77, 0.09, 0.98, 0.37
83, 25402.33, 25432.24, 25507.77, 25472.79, 25477.77, 25510.04, 25439.79, 25447.30, 0.09, 0.98, 0.37
84, 25396.28, 25426.25, 25501.66, 25466.73, 25471.69, 25504.03, 25433.69, 25441.25, 0.09, 0.98, 0.37
85, 25360.89, 25390.89, 25466.37, 25431.34, 25436.31, 25468.63, 25398.33, 25405.84, 0.09, 0.99, 0.36
86, 25317.89, 25347.95, 25423.30, 25388.29, 25393.35, 25425.55, 25355.26, 25362.81, 0.09, 0.99, 0.36
87, 25301.57, 25331.61, 25406.96, 25372.02, 25376.96, 25409.28, 25338.99, 25346.47, 0.09, 0.99, 0.36
88, 25296.61, 25326.60, 25401.93, 25367.11, 25371.98, 25404.34, 25334.07, 25341.49, 0.09, 0.99, 0.36
89, 25266.10, 25296.12, 25371.31, 25336.55, 25341.47, 25373.83, 25303.47, 25310.96, 0.09, 0.99, 0.36
90, 25223.43, 25253.42, 25328.62, 25293.77, 25298.75, 25331.03, 25260.71, 25268.22, 0.09, 0.99, 0.37
91, 25202.96, 25233.02, 25308.23, 25273.36, 25278.39, 25310.58, 25240.30, 25247.88, 0.09, 0.99, 0.37
92, 25197.21, 25227.27, 25302.49, 25267.66, 25272.65, 25304.97, 25234.67, 25242.18, 0.09, 0.99, 0.37
93, 25176.06, 25206.08, 25281.28, 25246.50, 25251.41, 25283.76, 25213.50, 25220.88, 0.09, 0.99, 0.37
94, 25132.81, 25162.90, 25238.07, 25203.22, 25208.25, 25240.57, 25170.28, 25177.67, 0.09, 0.99, 0.37
95, 25105.43, 25135.50, 25210.67, 25175.86, 25180.96, 25213.28, 25142.92, 25150.36, 0.09, 0.99, 0.36
96, 25102.01, 25132.10, 25207.31, 25172.51, 25177.56, 25209.86, 25139.52, 25147.03, 0.09, 0.99, 0.36
97, 25083.46, 25113.48, 25188.74, 25153.91, 25158.92, 25191.33, 25120.92, 25128.48, 0.09, 0.99, 0.36
98, 25038.80, 25068.78, 25143.99, 25109.23, 25114.33, 25146.67, 25076.29, 25083.80, 0.09, 0.99, 0.36
99, 25007.87, 25037.87, 25112.92, 25078.16, 25083.30, 25115.65, 25045.33, 25052.79, 0.09, 0.99, 0.36
100, 25004.25, 25034.20, 25109.35, 25074.54, 25079.68, 25112.03, 25041.62, 25049.11, 0.09, 0.99, 0.37
101, 24991.46, 25021.57, 25096.58, 25061.91, 25066.90, 25099.29, 25028.90, 25036.30, 0.09, 0.99, 0.37
102, 24951.59, 24981.74, 25056.66, 25022.08, 25027.05, 25059.39, 24989.09, 24996.45, 0.09, 0.99, 0.37
103, 24917.97, 24948.01, 25023.02, 24988.31, 24993.32, 25025.68, 24955.32, 24962.81, 0.09, 0.99, 0.37
104, 24909.34, 24939.36, 25014.39, 24979.71, 24984.73, 25017.10, 24946.69, 24954.27, 0.09, 0.99, 0.37
105, 24898.37, 24928.41, 25003.42, 24968.71, 24973.78, 25006.17, 24935.70, 24943.27, 0.08, 0.99, 0.37
106, 24862.31, 24892.33, 24967.37, 24932.72, 24937.82, 24970.21, 24899.62, 24907.24, 0.08, 0.99, 0.37
107, 24823.24, 24853.28, 24928.30, 24893.67, 24898.77, 24931.11, 24860.64, 24868.13, 0.08, 0.99, 0.37
108, 24809.63, 24839.69, 24914.66, 24880.02, 24885.16, 24917.43, 24847.00, 24854.45, 0.08, 0.99, 0.37
109, 24802.30, 24832.36, 24907.26, 24872.71, 24877.74, 24910.10, 24839.67, 24847.18, 0.08, 0.99, 0.37
110, 24770.72, 24800.73, 24875.61, 24841.06, 24846.11, 24878.52, 24808.00, 24815.53, 0.08, 0.99, 0.37
111, 24731.71, 24761.73, 24836.68, 24802.05, 24807.20, 24839.54, 24768.97, 24776.55, 0.09, 0.99, 0.37
112, 24716.42, 24746.44, 24821.39, 24786.79, 24792.00, 24824.29, 24753.84, 24761.24, 0.09, 0.99, 0.37
113, 24711.06, 24741.05, 24815.96, 24781.45, 24786.65, 24818.91, 24748.48, 24755.85, 0.09, 0.99, 0.37
114, 24681.96, 24712.07, 24786.88, 24752.46, 24757.57, 24789.85, 24719.38, 24726.86, 0.09, 0.99, 0.37
115, 24640.92, 24671.03, 24745.71, 24711.37, 24716.45, 24748.83, 24678.31, 24685.73, 0.09, 0.99, 0.37
116, 24618.05, 24648.12, 24722.77, 24688.35, 24693.49, 24725.83, 24655.40, 24662.78, 0.09, 0.98, 0.37
117, 24613.05, 24643.04, 24717.77, 24683.28, 24688.51, 24720.80, 24650.35, 24657.71, 0.09, 0.98, 0.37
118, 24591.46, 24621.45, 24696.20, 24661.71, 24666.96, 24699.30, 24628.80, 24636.16, 0.09, 0.98, 0.37
119, 24549.50, 24579.52, 24654.20, 24619.75, 24624.96, 24657.35, 24586.87, 24594.21, 0.09, 0.98, 0.37
120, 24521.70, 24551.74, 24626.39, 24591.88, 24597.15, 24629.48, 24559.04, 24566.44, 0.09, 0.98, 0.37
121, 24518.75, 24548.74, 24623.35, 24588.95, 24594.25, 24626.46, 24556.05, 24563.52, 0.09, 0.98, 0.36
122, 24502.96, 24533.03, 24607.71, 24573.26, 24578.51, 24610.74, 24540.29, 24547.78, 0.09, 0.98, 0.36
123, 24460.05, 24490.11, 24564.72, 24530.23, 24535.58, 24567.90, 24497.29, 24504.84, 0.09, 0.98, 0.36
124, 24425.36, 24455.45, 24530.01, 24495.52, 24500.86, 24533.23, 24462.62, 24470.20, 0.09, 0.98, 0.36
125, 24417.89, 24447.98, 24522.57, 24488.10, 24493.44, 24525.76, 24455.22, 24462.73, 0.09, 0.98, 0.36
126, 24403.92, 24434.01, 24508.49, 24474.13, 24479.38, 24511.68, 24441.21, 24448.67, 0.09, 0.98, 0.37
127, 24363.27, 24393.38, 24467.85, 24433.50, 24438.75, 24471.11, 24400.59, 24408.06, 0.09, 0.98, 0.37
128, 24328.15, 24358.26, 24432.82, 24398.38, 24403.63, 24436.02, 24365.55, 24373.04, 0.09, 0.98, 0.37
129, 24319.75, 24349.81, 24424.33, 24389.98, 24395.23, 24427.48, 24357.03, 24364.54, 0.09, 0.98, 0.37
130, 24310.20, 24340.29, 24414.83, 24380.50, 24385.84, 24418.03, 24347.55, 24355.11, 0.09, 0.98, 0.37
131, 24274.55, 24304.55, 24379.14, 24344.76, 24350.08, 24382.42, 24311.81, 24319.28, 0.09, 0.98, 0.37
132, 24233.34, 24263.33, 24337.79, 24303.54, 24308.79, 24341.18, 24270.60, 24278.04, 0.09, 0.98, 0.37
133, 24220.51, 24250.55, 24324.98, 24290.67, 24295.96, 24328.31, 24257.74, 24265.19, 0.09, 0.98, 0.37
134, 24215.41, 24245.47, 24319.90, 24285.57, 24290.89, 24323.14, 24252.69, 24260.09, 0.09, 0.98, 0.37
135, 24183.51, 24213.60, 24288.05, 24253.79, 24259.15, 24291.45, 24220.95, 24228.31, 0.09, 0.98, 0.37
136, 24141.07, 24171.18, 24245.63, 24211.30, 24216.73, 24249.05, 24178.46, 24185.91, 0.09, 0.98, 0.37
137, 24121.40, 24151.48, 24225.89, 24191.61, 24197.04, 24229.31, 24158.73, 24166.28, 0.09, 0.98, 0.37
138, 24116.55, 24146.61, 24220.97, 24186.84, 24192.07, 24224.44, 24153.88, 24161.36, 0.09, 0.98, 0.37
139, 24091.42, 24121.42, 24195.90, 24161.70, 24166.95, 24199.34, 24128.77, 24136.22, 0.09, 0.98, 0.37
140, 24048.40, 24078.42, 24152.76, 24118.67, 24123.95, 24156.29, 24085.70, 24093.21, 0.09, 0.98, 0.37
141, 24026.11, 24056.06, 24130.45, 24096.37, 24101.64, 24133.96, 24063.39, 24070.82, 0.09, 0.98, 0.37
142, 24022.92, 24052.96, 24127.41, 24093.26, 24098.53, 24130.81, 24060.29, 24067.60, 0.09, 0.99, 0.37
143, 24002.38, 24032.44, 24106.71, 24072.63, 24077.95, 24110.24, 24039.68, 24047.08, 0.09, 0.99, 0.37
144, 23958.68, 23988.92, 24063.08, 24029.06, 24034.36, 24066.79, 23996.07, 24003.56, 0.09, 0.99, 0.37
145, 23929.06, 23959.30, 24033.44, 23999.31, 24004.74, 24037.13, 23966.41, 23973.88, 0.09, 0.99, 0.37
146, 23922.56, 23952.64, 24026.76, 23992.70, 23998.13, 24030.49, 23959.82, 23967.24, 0.09, 0.99, 0.37
147, 23906.55, 23936.68, 24010.87, 23976.74, 23982.17, 24014.58, 23943.93, 23951.32, 0.09, 0.99, 0.37
148, 23866.50, 23896.56, 23970.81, 23936.57, 23942.07, 23974.53, 23903.80, 23911.29, 0.09, 0.99, 0.37
149, 23833.24, 23863.30, 23937.42, 23903.31, 23908.81, 23941.22, 23870.43, 23877.94, 0.09, 0.99, 0.37
150, 23825.60, 23855.64, 23929.66, 23895.65, 23901.12, 23933.44, 23862.79, 23870.23, 0.09, 0.99, 0.37
151, 23811.83, 23841.96, 23916.01, 23881.99, 23887.49, 23919.76, 23849.06, 23856.57, 0.09, 0.99, 0.37
152, 23775.08, 23805.23, 23879.28, 23845.20, 23850.74, 23882.97, 23812.38, 23819.72, 0.10, 0.99, 0.37
153, 23739.00, 23769.09, 23843.14, 23809.05, 23814.64, 23846.83, 23776.31, 23783.62, 0.10, 0.99, 0.37
154, 23728.23, 23758.41, 23832.46, 23798.33, 23803.89, 23836.08, 23765.56, 23772.91, 0.10, 0.99, 0.37
155, 23720.72, 23750.87, 23824.95, 23790.88, 23796.40, 23828.66, 23758.07, 23765.49, 0.10, 0.99, 0.37
156, 23687.21, 23717.35, 23791.31, 23757.29, 23762.83, 23795.15, 23724.52, 23731.88, 0.10, 0.99, 0.37
157, 23647.21, 23677.38, 23751.28, 23717.23, 23722.84, 23755.14, 23684.47, 23691.87, 0.09, 0.98, 0.38
158, 23632.16, 23662.29, 23736.21, 23702.21, 23707.73, 23740.08, 23669.36, 23676.78, 0.09, 0.98, 0.38
159, 23628.54, 23658.65, 23732.59, 23698.75, 23704.25, 23736.48, 23665.87, 23673.20, 0.09, 0.98, 0.38
160, 23598.28, 23628.43, 23702.39, 23668.42, 23674.03, 23706.21, 23635.70, 23642.98, 0.09, 0.98, 0.38
161, 23554.51, 23584.69, 23658.58, 23624.54, 23630.26, 23662.52, 23591.82, 23599.24, 0.09, 0.98, 0.38
162, 23534.69, 23564.93, 23638.71, 23604.74, 23610.37, 23642.69, 23571.95, 23579.37, 0.09, 0.99, 0.38
163, 23529.19, 23559.47, 23633.24, 23599.37, 23604.94, 23637.24, 23566.54, 23573.94, 0.09, 0.99, 0.38
164, 23505.54, 23535.85, 23609.57, 23575.70, 23581.34, 23613.57, 23542.91, 23550.33, 0.09, 0.99, 0.38
165, 23462.13, 23492.26, 23565.94, 23532.09, 23537.75, 23570.12, 23499.30, 23506.75, 0.09, 0.99, 0.38
166, 23435.67, 23465.84, 23539.38, 23505.65, 23511.20, 23543.56, 23472.77, 23480.24, 0.09, 0.99, 0.38
167, 23432.38, 23462.60, 23536.23, 23502.48, 23508.02, 23540.37, 23469.62, 23476.97, 0.09, 0.99, 0.38
168, 23412.42, 23442.60, 23516.27, 23482.52, 23488.13, 23520.34, 23449.64, 23457.02, 0.09, 0.98, 0.38
169, 23371.18, 23401.40, 23475.01, 23441.30, 23446.82, 23479.03, 23408.40, 23415.75, 0.09, 0.98, 0.38
170, 23338.48, 23368.79, 23442.35, 23408.60, 23414.19, 23446.44, 23375.72, 23383.10, 0.09, 0.98, 0.38
171, 23330.17, 23360.39, 23434.06, 23400.24, 23405.85, 23438.02, 23367.36, 23374.76, 0.09, 0.98, 0.38
172, 23316.51, 23346.78, 23420.31, 23386.58, 23392.22, 23424.36, 23353.68, 23361.06, 0.09, 0.98, 0.38
173, 23277.42, 23307.68, 23381.27, 23347.56, 23353.13, 23385.36, 23314.63, 23322.10, 0.09, 0.99, 0.38
174, 23245.79, 23276.01, 23349.59, 23315.84, 23321.47, 23353.75, 23282.94, 23290.43, 0.09, 0.99, 0.38
175, 23238.68, 23268.86, 23342.35, 23308.76, 23314.39, 23346.57, 23275.88, 23283.25, 0.09, 0.99, 0.38
176, 23227.44, 23257.68, 23331.22, 23297.49, 23303.12, 23335.31, 23264.72, 23272.03, 0.09, 0.99, 0.38
177, 23188.39, 23218.61, 23292.08, 23258.44, 23264.03, 23296.28, 23225.61, 23233.01, 0.09, 0.99, 0.38
178, 23151.31, 23181.53, 23255.00, 23221.36, 23226.95, 23259.27, 23188.55, 23195.88, 0.08, 0.99, 0.38
179, 23140.78, 23171.03, 23244.54, 23210.86, 23216.38, 23248.79, 23177.93, 23185.40, 0.08, 0.99, 0.38
180, 23131.78, 23162.04, 23235.44, 23201.82, 23207.37, 23239.73, 23168.90, 23176.39, 0.08, 0.99, 0.38
181, 23097.67, 23128.00, 23201.33, 23167.67, 23173.33, 23205.58, 23134.93, 23142.26, 0.08, 0.99, 0.38
182, 23057.46, 23087.81, 23161.12, 23127.46, 23133.23, 23165.46, 23094.63, 23102.00, 0.08, 0.99, 0.38
183, 23042.23, 23072.52, 23145.86, 23112.24, 23117.94, 23150.24, 23079.36, 23086.76, 0.09, 0.98, 0.37
184, 23036.91, 23067.20, 23140.51, 23106.88, 23112.57, 23144.89, 23074.06, 23081.44, 0.09, 0.98, 0.37
185, 23007.07, 23037.32, 23110.67, 23076.97, 23082.69, 23115.03, 23044.16, 23051.55, 0.09, 0.98, 0.37
186, 22965.54, 22995.76, 23069.14, 23035.51, 23041.16, 23073.55, 23002.69, 23010.07, 0.09, 0.98, 0.37
187, 22944.69, 22974.91, 23048.20, 23014.65, 23020.37, 23052.69, 22981.91, 22989.13, 0.09, 0.98, 0.37
188, 22939.68, 22969.90, 23043.17, 23009.62, 23015.32, 23047.64, 22976.83, 22984.12, 0.09, 0.98, 0.37
189, 22917.27, 22947.55, 23020.73, 22987.23, 22992.97, 23025.27, 22954.50, 22961.74, 0.09, 0.98, 0.37
190, 22873.84, 22904.17, 22977.30, 22943.77, 22949.54, 22981.86, 22911.12, 22918.27, 0.09, 0.98, 0.37
191, 22848.91, 22879.22, 22952.27, 22918.81, 22924.60, 22956.83, 22886.13, 22893.30, 0.09, 0.98, 0.37
192, 22844.51, 22874.69, 22947.84, 22914.43, 22920.10, 22952.47, 22881.64, 22888.83, 0.09, 0.98, 0.37
193, 22826.29, 22856.58, 22929.74, 22896.21, 22902.02, 22934.30, 22863.49, 22870.73, 0.09, 0.98, 0.37
194, 22784.16, 22814.51, 22887.69, 22854.10, 22859.91, 22892.19, 22821.40, 22828.69, 0.09, 0.98, 0.37
195, 22751.46, 22781.79, 22855.04, 22821.40, 22827.25, 22859.49, 22788.65, 22795.96, 0.09, 0.98, 0.37
196, 22744.42, 22774.71, 22847.91, 22814.31, 22820.21, 22852.40, 22781.59, 22788.79, 0.09, 0.98, 0.37
197, 22732.35, 22762.59, 22835.64, 22802.22, 22808.03, 22840.29, 22769.47, 22776.58, 0.09, 0.98, 0.37
198, 22691.56, 22721.84, 22794.89, 22761.47, 22767.29, 22799.65, 22728.73, 22735.88, 0.09, 0.98, 0.37
199, 22655.17, 22685.57, 22758.50, 22725.13, 22730.99, 22763.26, 22692.29, 22699.56, 0.09, 0.97, 0.38
200, 22647.32, 22677.77, 22750.61, 22717.22, 22723.14, 22755.39, 22684.45, 22691.67, 0.09, 0.97, 0.38
201, 22639.05, 22669.34, 22742.18, 22708.79, 22714.76, 22747.06, 22676.09, 22683.38, 0.09, 0.97, 0.38
202, 22603.78, 22634.20, 22707.05, 22673.68, 22679.51, 22711.83, 22640.93, 22648.24, 0.09, 0.97, 0.38
203, 22565.58, 22596.07, 22668.87, 22635.57, 22641.29, 22673.59, 22602.78, 22610.04, 0.09, 0.97, 0.38
204, 22549.62, 22580.00, 22652.80, 22619.54, 22625.29, 22657.65, 22586.75, 22593.99, 0.09, 0.98, 0.37
205, 22540.53, 22570.97, 22643.77, 22610.49, 22616.30, 22648.66, 22577.74, 22584.94, 0.09, 0.98, 0.37
206, 22508.54, 22538.94, 22611.72, 22578.44, 22584.29, 22616.59, 22545.71, 22552.87, 0.09, 0.98, 0.37
207, 22467.03, 22497.39, 22570.19, 22536.84, 22542.81, 22575.08, 22504.16, 22511.31, 0.09, 0.98, 0.37
208, 22450.61, 22480.91, 22553.78, 22520.46, 22526.36, 22558.63, 22487.78, 22494.88, 0.09, 0.98, 0.37
209, 22447.48, 22477.76, 22550.58, 22517.24, 22523.27, 22555.35, 22484.47, 22491.64, 0.09, 0.99, 0.37
210, 22422.35, 22452.59, 22525.37, 22492.13, 22498.10, 22530.31, 22459.35, 22466.54, 0.09, 0.99, 0.37
211, 22377.85, 22408.21, 22480.89, 22447.72, 22453.60, 22485.88, 22414.96, 22422.06, 0.09, 0.99, 0.37
212, 22357.51, 22387.75, 22460.44, 22427.20, 22433.17, 22465.47, 22394.53, 22401.63, 0.09, 0.99, 0.37
213, 22354.63, 22384.89, 22457.54, 22424.30, 22430.27, 22462.45, 22391.57, 22398.77, 0.09, 0.99, 0.37
214, 22332.50, 22362.81, 22435.41, 22402.24, 22408.14, 22440.41, 22369.47, 22376.58, 0.10, 0.98, 0.38
215, 22290.34, 22320.70, 22393.25, 22360.08, 22366.07, 22398.32, 22327.36, 22334.49, 0.10, 0.98, 0.38
216, 22259.81, 22290.12, 22362.72, 22329.53, 22335.61, 22367.84, 22296.85, 22303.91, 0.10, 0.98, 0.38
217, 22255.12, 22285.40, 22358.03, 22324.92, 22330.91, 22363.12, 22292.15, 22299.20, 0.10, 0.98, 0.38
218, 22238.44, 22268.84, 22341.37, 22308.18, 22314.26, 22346.49, 22275.44, 22282.54, 0.10, 0.98, 0.38
219, 22196.87, 22227.29, 22299.73, 22266.56, 22272.69, 22304.98, 22233.86, 22240.99, 0.09, 0.98, 0.37
220, 22163.38, 22193.83, 22266.20, 22233.12, 22239.27, 22271.50, 22200.38, 22207.55, 0.09, 0.98, 0.37
221, 22155.07, 22185.45, 22257.84, 22224.74, 22230.87, 22263.14, 22191.95, 22199.19, 0.09, 0.98, 0.37
222, 22145.13, 22175.41, 22247.92, 22214.73, 22220.81, 22253.08, 22181.92, 22189.16, 0.09, 0.98, 0.37
223, 22105.65, 22135.92, 22208.40, 22175.25, 22181.33, 22213.61, 22142.46, 22149.64, 0.09, 0.98, 0.37
224, 22069.24, 22099.59, 22172.01, 22138.96, 22145.08, 22177.42, 22106.19, 22113.36, 0.09, 0.98, 0.37
225, 22059.70, 22089.98, 22162.49, 22129.43, 22135.56, 22167.83, 22096.62, 22103.84, 0.09, 0.99, 0.38
226, 22050.51, 22080.82, 22153.24, 22120.25, 22126.28, 22158.58, 22087.43, 22094.59, 0.09, 0.99, 0.38
227, 22015.28, 22045.59, 22117.86, 22084.86, 22090.97, 22123.33, 22052.14, 22059.29, 0.09, 0.99, 0.38
228, 21976.28, 22006.65, 22078.83, 22045.93, 22052.03, 22084.42, 22013.16, 22020.31, 0.09, 0.99, 0.38
229, 21962.13, 21992.51, 22064.79, 22031.87, 22037.95, 22070.31, 21999.05, 22006.16, 0.09, 0.99, 0.38
230, 21956.43, 21986.76, 22059.03, 22026.12, 22032.22, 22064.48, 21993.31, 22000.44, 0.09, 0.99, 0.38
231, 21925.56, 21955.89, 22028.07, 21995.26, 22001.29, 22033.54, 21962.44, 21969.60, 0.09, 0.99, 0.38
232, 21885.17, 21915.46, 21987.66, 21954.78, 21960.95, 21993.18, 21922.08, 21929.25, 0.09, 0.99, 0.38
233, 21867.25, 21897.53, 21969.82, 21936.92, 21943.06, 21975.32, 21904.24, 21911.37, 0.09, 0.99, 0.38
234, 21861.50, 21891.95, 21964.23, 21931.24, 21937.43, 21969.69, 21898.54, 21905.67, 0.09, 0.99, 0.38
235, 21833.76, 21864.19, 21936.34, 21903.44, 21909.69, 21941.88, 21870.80, 21877.84, 0.09, 0.98, 0.37
236, 21790.07, 21820.44, 21892.55, 21859.71, 21865.88, 21898.16, 21827.08, 21834.05, 0.09, 0.98, 0.37
237, 21766.49, 21796.88, 21869.04, 21836.18, 21842.32, 21874.65, 21803.43, 21810.63, 0.09, 0.98, 0.37
238, 21763.74, 21794.16, 21866.17, 21833.34, 21839.58, 21871.88, 21800.68, 21807.77, 0.09, 0.98, 0.37
239, 21743.80, 21774.20, 21846.26, 21813.45, 21819.68, 21851.98, 21780.79, 21787.76, 0.09, 0.98, 0.37
240, 21701.58, 21731.95, 21803.95, 21771.16, 21777.44, 21809.65, 21738.50, 21745.47, 0.09, 0.99, 0.37
241, 21672.83, 21703.21, 21775.16, 21742.39, 21748.74, 21780.88, 21709.71, 21716.78, 0.09, 0.99, 0.37
242, 21666.66, 21697.08, 21769.06, 21736.31, 21742.57, 21774.76, 21703.57, 21710.74, 0.09, 0.99, 0.37
243, 21651.98, 21682.40, 21754.37, 21721.60, 21727.86, 21760.00, 21688.81, 21696.01, 0.09, 0.99, 0.37
244, 21609.02, 21639.48, 21711.39, 21678.64, 21684.92, 21717.09, 21645.90, 21652.98, 0.09, 0.99, 0.37
245, 21574.93, 21605.31, 21677.17, 21644.56, 21650.75, 21682.94, 21611.74, 21618.81, 0.09, 0.99, 0.37
246, 21569.12, 21599.56, 21671.38, 21638.70, 21644.94, 21677.19, 21605.89, 21613.00, 0.09, 0.99, 0.37
247, 21556.78, 21587.29, 21659.13, 21626.34, 21632.67, 21664.83, 21593.55, 21600.70, 0.09, 0.99, 0.37
248, 21519.10, 21549.58, 21621.36, 21588.68, 21594.94, 21627.17, 21555.87, 21563.00, 0.09, 0.99, 0.37
249, 21482.64, 21513.06, 21584.83, 21552.24, 21558.50, 21590.80, 21519.48, 21526.61, 0.09, 0.99, 0.37
250, 21470.55, 21500.97, 21572.72, 21540.13, 21546.48, 21578.69, 21507.34, 21514.47, 0.09, 0.99, 0.37
251, 21461.76, 21492.12, 21563.98, 21531.28, 21537.63, 21569.86, 21498.51, 21505.57, 0.09, 0.99, 0.37
252, 21427.52, 21457.85, 21529.60, 21496.83, 21503.27, 21535.55, 21464.18, 21471.26, 0.09, 0.99, 0.37
253, 21387.33, 21417.80, 21489.48, 21456.76, 21463.24, 21495.43, 21424.08, 21431.14, 0.09, 0.99, 0.37
254, 21368.40, 21398.89, 21470.48, 21437.87, 21444.24, 21476.52, 21405.10, 21412.26, 0.09, 0.99, 0.37
255, 21361.45, 21391.92, 21463.64, 21430.94, 21437.31, 21469.68, 21398.24, 21405.30, 0.09, 0.99, 0.37
0, 21333.20, 21363.71, 21435.39, 21402.69, 21409.15, 21441.45, 21370.01, 21377.05, 0.10, 0.99, 0.37
1, 21289.68, 21320.08, 21391.69, 21359.01, 21365.54, 21397.84, 21326.42, 21333.44, 0.10, 0.99, 0.37
2, 21269.00, 21299.56, 21371.13, 21338.45, 21344.89, 21377.28, 21305.82, 21312.90, 0.10, 0.99, 0.37
3, 21266.83, 21297.30, 21368.87, 21336.33, 21342.63, 21374.99, 21303.54, 21310.58, 0.10, 0.99, 0.37
4, 21240.64, 21271.19, 21342.67, 21310.13, 21316.50, 21348.84, 21277.41, 21284.43, 0.10, 0.99, 0.37
5, 21197.01, 21227.65, 21298.98, 21266.52, 21273.00, 21305.19, 21233.80, 21240.84, 0.09, 0.99, 0.38
6, 21171.42, 21201.99, 21273.36, 21240.88, 21247.37, 21279.49, 21208.14, 21215.22, 0.09, 0.99, 0.38
7, 21168.35, 21198.75, 21270.21, 21237.69, 21244.13, 21276.36, 21204.92, 21212.01, 0.09, 0.99, 0.38
8, 21149.96, 21180.38, 21251.97, 21219.43, 21225.82, 21258.01, 21186.64, 21193.70, 0.09, 0.99, 0.38
9, 21104.94, 21135.50, 21206.98, 21174.46, 21180.87, 21213.10, 21141.75, 21148.77, 0.09, 0.99, 0.38
10, 21074.41, 21104.96, 21176.38, 21143.90, 21150.34, 21182.57, 21111.18, 21118.15, 0.09, 0.98, 0.38
11, 21069.76, 21100.29, 21171.71, 21139.18, 21145.69, 21177.90, 21106.51, 21113.48, 0.09, 0.98, 0.38
12, 21056.62, 21087.22, 21158.54, 21126.09, 21132.59, 21164.78, 21093.25, 21100.34, 0.09, 0.98, 0.38
13, 21017.08, 21047.61, 21118.89, 21086.50, 21092.98, 21125.24, 21053.71, 21060.80, 0.09, 0.98, 0.38
14, 20983.30, 21013.81, 21085.09, 21052.68, 21059.25, 21091.51, 21019.98, 21027.04, 0.09, 0.98, 0.38
15, 20976.40, 21006.95, 21078.23, 21045.75, 21052.30, 21084.73, 21013.14, 21020.16, 0.09, 0.99, 0.39
16, 20966.14, 20996.65, 21067.97, 21035.43, 21042.02, 21074.34, 21002.77, 21009.88, 0.09, 0.99, 0.39
17, 20926.78, 20957.29, 21028.61, 20996.18, 21002.77, 21034.96, 20963.46, 20970.56, 0.09, 0.99, 0.39
18, 20886.68, 20917.30, 20988.51, 20956.19, 20962.74, 20994.90, 20923.42, 20930.55, 0.09, 0.99, 0.39
19, 20874.99, 20905.56, 20976.80, 20944.46, 20951.05, 20983.21, 20911.67, 20918.79, 0.09, 0.99, 0.39
20, 20870.29, 20900.76, 20972.06, 20939.74, 20946.29, 20978.50, 20906.90, 20914.01, 0.08, 0.98, 0.38
21, 20839.51, 20870.00, 20941.19, 20908.96, 20915.51, 20947.72, 20876.15, 20883.21, 0.08, 0.98, 0.38
22, 20796.58, 20827.11, 20898.12, 20866.00, 20872.48, 20904.71, 20833.23, 20840.30, 0.08, 0.98, 0.38
23, 20781.00, 20811.48, 20882.47, 20850.42, 20856.88, 20889.11, 20817.63, 20824.65, 0.08, 0.98, 0.38
24, 20776.24, 20806.66, 20877.78, 20845.57, 20852.10, 20884.42, 20812.78, 20819.93, 0.08, 0.98, 0.38
25, 20746.13, 20776.68, 20847.65, 20815.42, 20821.95, 20854.36, 20782.74, 20789.78, 0.09, 0.98, 0.39
26, 20703.28, 20733.79, 20804.73, 20772.55, 20779.07, 20811.46, 20739.87, 20746.91, 0.09, 0.98, 0.39
27, 20682.05, 20712.58, 20783.61, 20751.31, 20757.93, 20790.21, 20718.70, 20725.63, 0.09, 0.98, 0.39
28, 20680.97, 20711.55, 20782.49, 20750.15, 20756.79, 20789.04, 20717.56, 20724.49, 0.09, 0.98, 0.39
29, 20656.68, 20687.23, 20758.04, 20725.81, 20732.43, 20764.64, 20693.18, 20700.20, 0.09, 0.98, 0.39
30, 20611.86, 20642.46, 20713.23, 20681.13, 20687.75, 20720.02, 20648.45, 20655.38, 0.09, 0.98, 0.39
31, 20585.51, 20616.11, 20686.83, 20654.73, 20661.37, 20693.56, 20622.03, 20629.03, 0.09, 0.98, 0.39
32, 20580.19, 20610.74, 20681.53, 20649.46, 20656.05, 20688.24, 20616.71, 20623.82, 0.09, 0.98, 0.39
33, 20565.46, 20596.06, 20666.89, 20634.77, 20641.39, 20673.69, 20602.14, 20609.11, 0.09, 0.98, 0.39
34, 20521.38, 20552.07, 20622.86, 20590.67, 20597.47, 20629.70, 20558.17, 20565.13, 0.09, 0.98, 0.39
35, 20489.02, 20519.64, 20590.40, 20558.29, 20564.99, 20597.33, 20525.70, 20532.71, 0.09, 0.98, 0.39
36, 20484.28, 20514.90, 20585.62, 20553.57, 20560.27, 20592.53, 20520.89, 20527.91, 0.09, 0.98, 0.38
37, 20472.81, 20503.39, 20574.11, 20541.97, 20548.72, 20581.02, 20509.31, 20516.24, 0.09, 0.98, 0.38
38, 20432.27, 20462.84, 20533.52, 20501.38, 20508.22, 20540.43, 20468.70, 20475.72, 0.09, 0.98, 0.38
39, 20393.57, 20424.08, 20494.80, 20462.71, 20469.48, 20501.69, 20430.05, 20437.12, 0.09, 0.98, 0.38
40, 20383.38, 20413.78, 20484.55, 20452.47, 20459.24, 20491.50, 20419.84, 20426.83, 0.09, 0.98, 0.38
41, 20374.91, 20405.42, 20476.12, 20444.16, 20450.84, 20483.09, 20411.48, 20418.32, 0.09, 0.98, 0.38
42, 20340.33, 20370.87, 20441.47, 20409.49, 20416.33, 20448.47, 20376.95, 20383.79, 0.09, 0.98, 0.38
43, 20302.13, 20332.78, 20403.30, 20371.29, 20378.11, 20410.29, 20338.72, 20345.59, 0.09, 0.98, 0.38
44, 20287.65, 20318.27, 20388.72, 20356.76, 20363.60, 20395.85, 20324.08, 20330.99, 0.09, 0.98, 0.38
45, 20280.77, 20311.37, 20381.91, 20349.88, 20356.69, 20388.97, 20317.22, 20324.06, 0.09, 0.98, 0.38
46, 20252.04, 20282.67, 20353.23, 20321.13, 20327.99, 20360.25, 20288.46, 20295.45, 0.08, 0.98, 0.38
47, 20210.92, 20241.54, 20312.01, 20280.12, 20286.96, 20319.14, 20247.42, 20254.41, 0.08, 0.98, 0.38
48, 20192.81, 20223.43, 20293.84, 20262.10, 20268.85, 20301.04, 20229.29, 20236.29, 0.08, 0.98, 0.38
49, 20188.47, 20219.19, 20289.59, 20257.79, 20264.49, 20296.70, 20225.06, 20232.11, 0.08, 0.98, 0.38
50, 20160.11, 20190.82, 20261.23, 20229.31, 20236.11, 20268.36, 20196.66, 20203.70, 0.08, 0.98, 0.38
51, 20115.79, 20146.36, 20216.77, 20184.88, 20191.76, 20223.99, 20152.29, 20159.22, 0.09, 0.98, 0.38
52, 20092.56, 20123.07, 20193.44, 20161.59, 20168.52, 20200.75, 20129.00, 20135.99, 0.09, 0.98, 0.38
53, 20089.39, 20119.99, 20190.35, 20158.41, 20165.38, 20197.55, 20125.85, 20132.84, 0.09, 0.98, 0.38
54, 20070.39, 20101.08, 20171.31, 20139.44, 20146.41, 20178.69, 20106.91, 20113.89, 0.09, 0.98, 0.38
55, 20029.04, 20059.71, 20129.87, 20098.11, 20105.01, 20137.22, 20065.47, 20072.45, 0.09, 0.98, 0.38
56, 20000.97, 20031.61, 20101.86, 20070.03, 20076.98, 20109.19, 20037.40, 20044.44, 0.09, 0.98, 0.38
57, 19996.23, 20026.87, 20097.15, 20065.21, 20072.22, 20104.52, 20032.64, 20039.59, 0.09, 0.98, 0.38
58, 19981.05, 20011.65, 20081.86, 20049.92, 20056.94, 20089.32, 20017.35, 20024.30, 0.09, 0.98, 0.38
59, 19938.58, 19969.16, 20039.37, 20007.56, 20014.44, 20046.81, 19974.88, 19981.88, 0.09, 0.98, 0.38
60, 19904.32, 19934.92, 20005.06, 19973.36, 19980.25, 20012.59, 19940.71, 19947.66, 0.09, 0.98, 0.38
61, 19896.81, 19927.45, 19997.61, 19965.85, 19972.80, 20005.17, 19933.29, 19940.19, 0.09, 0.98, 0.38
62, 19884.47, 19915.20, 19985.32, 19953.65, 19960.53, 19992.88, 19920.99, 19927.99, 0.09, 0.99, 0.37
63, 19845.53, 19876.11, 19946.38, 19914.53, 19921.53, 19953.80, 19882.01, 19888.96, 0.09, 0.99, 0.37
64, 19808.52, 19839.14, 19909.32, 19877.49, 19884.49, 19916.77, 19844.91, 19851.79, 0.09, 0.99, 0.37
65, 19798.82, 19829.51, 19899.73, 19867.86, 19874.84, 19907.16, 19835.25, 19842.16, 0.09, 0.99, 0.37
66, 19790.81, 19821.48, 19891.58, 19859.77, 19866.83, 19899.11, 19827.20, 19834.18, 0.09, 0.99, 0.37
67, 19757.73, 19788.36, 19858.38, 19826.80, 19833.73, 19865.92, 19794.03, 19800.96, 0.09, 0.99, 0.37
68, 19714.35, 19745.06, 19815.00, 19783.35, 19790.37, 19822.67, 19750.74, 19757.60, 0.09, 0.99, 0.37
69, 19700.89, 19731.65, 19801.59, 19769.89, 19776.96, 19809.19, 19737.24, 19744.21, 0.09, 0.99, 0.37
70, 19697.38, 19728.05, 19798.01, 19766.36, 19773.43, 19805.57, 19733.77, 19740.66, 0.09, 0.99, 0.37
71, 19666.47, 19697.09, 19767.05, 19735.43, 19742.56, 19774.65, 19702.88, 19709.79, 0.09, 0.99, 0.37
72, 19622.91, 19653.58, 19723.45, 19691.77, 19698.93, 19731.14, 19659.21, 19666.23, 0.09, 0.98, 0.37
73, 19603.28, 19633.97, 19703.87, 19672.19, 19679.35, 19711.58, 19639.56, 19646.54, 0.09, 0.98, 0.37
74, 19601.38, 19632.16, 19702.10, 19670.38, 19677.51, 19709.72, 19637.84, 19644.70, 0.09, 0.98, 0.37
75, 19576.57, 19607.38, 19677.36, 19645.57, 19652.75, 19684.89, 19612.96, 19619.89, 0.09, 0.98, 0.37
76, 19534.17, 19564.84, 19634.71, 19602.99, 19610.21, 19642.40, 19570.36, 19577.31, 0.09, 0.98, 0.37
77, 19507.95, 19538.69, 19608.31, 19576.73, 19583.97, 19616.18, 19544.12, 19551.14, 0.09, 0.98, 0.37
78, 19503.64, 19534.37, 19604.02, 19572.39, 19579.61, 19611.87, 19539.83, 19546.78, 0.09, 0.98, 0.37
79, 19485.40, 19516.16, 19585.83, 19554.20, 19561.49, 19593.63, 19521.63, 19528.47, 0.09, 0.98, 0.37
80, 19443.69, 19474.40, 19544.14, 19512.47, 19519.80, 19551.90, 19479.97, 19486.83, 0.09, 0.98, 0.37
81, 19414.68, 19445.37, 19515.06, 19483.52, 19490.83, 19522.93, 19450.96, 19457.89, 0.09, 0.98, 0.37
82, 19408.94, 19439.67, 19509.32, 19477.82, 19485.09, 19517.25, 19445.19, 19452.12, 0.09, 0.98, 0.37
83, 19392.04, 19422.86, 19492.42, 19460.93, 19468.21, 19500.40, 19428.27, 19435.20, 0.09, 0.98, 0.37
84, 19349.23, 19380.08, 19449.66, 19418.10, 19425.39, 19457.51, 19385.47, 19392.46, 0.09, 0.98, 0.37
85, 19312.98, 19343.89, 19413.36, 19381.89, 19389.11, 19421.23, 19349.17, 19356.23, 0.09, 0.98, 0.37
86, 19307.57, 19338.35, 19407.86, 19376.41, 19383.63, 19415.71, 19343.74, 19350.64, 0.09, 0.98, 0.37
87, 19298.38, 19329.14, 19398.61, 19367.09, 19374.49, 19406.54, 19334.59, 19341.46, 0.09, 0.98, 0.37
88, 19260.92, 19291.70, 19361.17, 19329.70, 19337.10, 19369.19, 19297.22, 19304.06, 0.10, 0.98, 0.37
89, 19222.37, 19253.14, 19322.66, 19291.16, 19298.58, 19330.64, 19258.69, 19265.46, 0.10, 0.98, 0.37
90, 19210.25, 19240.96, 19310.41, 19278.92, 19286.40, 19318.43, 19246.39, 19253.23, 0.10, 0.98, 0.37
91, 19203.05, 19233.81, 19303.21, 19271.74, 19279.23, 19311.28, 19239.24, 19246.04, 0.10, 0.98, 0.37
92, 19168.88, 19199.72, 19269.01, 19237.61, 19245.05, 19277.08, 19205.13, 19211.86, 0.10, 0.98, 0.37
93, 19127.06, 19157.81, 19227.13, 19195.77, 19203.25, 19235.31, 19163.24, 19170.04, 0.10, 0.99, 0.37
94, 19111.12, 19141.94, 19211.23, 19179.79, 19187.32, 19219.39, 19147.29, 19154.06, 0.10, 0.99, 0.37
95, 19105.00, 19135.73, 19205.04, 19173.64, 19181.17, 19213.29, 19141.21, 19147.96, 0.10, 0.99, 0.37
96, 19076.59, 19107.37, 19176.70, 19145.30, 19152.74, 19184.93, 19112.78, 19119.57, 0.10, 0.99, 0.37
97, 19033.38, 19064.12, 19133.38, 19102.07, 19109.53, 19141.68, 19069.52, 19076.32, 0.10, 0.99, 0.37
98, 19010.27, 19040.89, 19110.18, 19078.91, 19086.42, 19118.54, 19046.41, 19053.14, 0.10, 0.99, 0.37
99, 19006.83, 19037.61, 19106.81, 19075.49, 19083.03, 19115.12, 19042.99, 19049.79, 0.10, 0.99, 0.37
100, 18985.53, 19016.33, 19085.48, 19054.10, 19061.68, 19093.80, 19021.63, 19028.46, 0.10, 0.99, 0.37
101, 18940.67, 18971.45, 19040.62, 19009.24, 19016.84, 19048.98, 18976.83, 18983.65, 0.10, 0.99, 0.37
102, 18916.24, 18946.95, 19016.10, 18984.83, 18992.37, 19024.57, 18952.47, 18959.11, 0.10, 0.99, 0.37
103, 18913.17, 18943.91, 19013.06, 18981.79, 18989.37, 19021.49, 18949.45, 18956.09, 0.09, 0.98, 0.37
104, 18892.70, 18923.57, 18992.70, 18961.41, 18968.88, 19001.04, 18929.00, 18935.68, 0.09, 0.98, 0.37
105, 18851.79, 18882.64, 18951.66, 18920.51, 18927.88, 18960.09, 18887.89, 18894.71, 0.09, 0.98, 0.37
106, 18820.08, 18850.92, 18919.90, 18888.74, 18896.19, 18928.37, 18856.24, 18862.95, 0.09, 0.98, 0.37
107, 18816.61, 18847.50, 18916.46, 18885.30, 18892.70, 18924.93, 18852.78, 18859.48, 0.09, 0.98, 0.37
108, 18804.23, 18835.17, 18904.10, 18873.01, 18880.43, 18912.66, 18840.42, 18847.15, 0.09, 0.98, 0.37
109, 18762.70, 18793.62, 18862.55, 18831.43, 18838.85, 18871.09, 18798.98, 18805.66, 0.09, 0.98, 0.37
110, 18727.72, 18758.57, 18827.54, 18796.39, 18803.87, 18836.11, 18763.91, 18770.64, 0.09, 0.98, 0.37
111, 18717.75, 18748.71, 18817.58, 18786.44, 18793.93, 18826.20, 18753.92, 18760.69, 0.09, 0.98, 0.37
112, 18708.90, 18739.79, 18808.75, 18777.45, 18785.03, 18817.31, 18744.98, 18751.75, 0.09, 0.98, 0.37
113, 18672.00, 18702.87, 18771.78, 18740.57, 18748.15, 18780.38, 18708.10, 18714.85, 0.09, 0.98, 0.37
114, 18633.67, 18664.51, 18733.33, 18702.24, 18709.79, 18742.05, 18669.76, 18676.51, 0.09, 0.98, 0.37
115, 18620.21, 18651.10, 18719.83, 18688.74, 18696.36, 18728.55, 18656.24, 18662.92, 0.09, 0.98, 0.37
116, 18614.46, 18645.31, 18714.18, 18683.02, 18690.60, 18722.83, 18650.52, 18657.18, 0.09, 0.98, 0.37
117, 18582.30, 18613.15, 18682.12, 18650.88, 18658.48, 18690.75, 18618.35, 18625.13, 0.09, 0.98, 0.37
118, 18539.45, 18570.37, 18639.21, 18608.01, 18615.61, 18647.86, 18575.51, 18582.26, 0.09, 0.98, 0.37
119, 18520.83, 18551.70, 18620.50, 18589.39, 18596.94, 18629.15, 18556.84, 18563.64, 0.09, 0.98, 0.36
120, 18518.93, 18549.67, 18618.44, 18587.33, 18594.91, 18627.12, 18554.81, 18561.74, 0.09, 0.98, 0.36
121, 18493.30, 18524.07, 18592.87, 18561.76, 18569.34, 18601.59, 18529.24, 18536.17, 0.09, 0.98, 0.36
122, 18447.83, 18478.63, 18547.34, 18516.34, 18523.87, 18556.15, 18483.75, 18490.64, 0.09, 0.98, 0.36
123, 18425.46, 18456.33, 18525.04, 18493.97, 18501.63, 18533.84, 18461.51, 18468.31, 0.09, 0.98, 0.36
124, 18419.29, 18450.20, 18518.93, 18487.82, 18495.51, 18527.72, 18455.39, 18462.21, 0.09, 0.98, 0.37
125, 18397.29, 18428.10, 18496.80, 18465.74, 18473.40, 18505.66, 18433.35, 18440.10, 0.09, 0.98, 0.37
126, 18354.36, 18385.22, 18453.78, 18422.75, 18430.38, 18462.74, 18390.32, 18397.12, 0.09, 0.98, 0.37
127, 18324.63, 18355.50, 18424.03, 18393.03, 18400.67, 18432.95, 18360.59, 18367.39, 0.09, 0.98, 0.37
128, 18319.06, 18349.98, 18418.64, 18387.53, 18395.24, 18427.43, 18355.12, 18361.96, 0.09, 0.98, 0.37
129, 18305.79, 18336.72, 18405.23, 18374.25, 18381.92, 18414.17, 18341.80, 18348.59, 0.09, 0.98, 0.38
130, 18265.85, 18296.71, 18365.18, 18334.35, 18341.97, 18374.23, 18301.74, 18308.58, 0.09, 0.98, 0.38
131, 18231.07, 18261.91, 18330.42, 18299.55, 18307.29, 18339.47, 18266.96, 18273.85, 0.09, 0.98, 0.38
132, 18223.80, 18254.76, 18323.20, 18292.24, 18300.00, 18332.21, 18259.83, 18266.61, 0.09, 0.98, 0.38
133, 18212.54, 18243.52, 18311.87, 18281.04, 18288.76, 18320.94, 18248.61, 18255.29, 0.09, 0.98, 0.38
134, 18174.22, 18205.23, 18273.58, 18242.80, 18250.45, 18282.70, 18210.23, 18216.96, 0.09, 0.99, 0.38
135, 18136.25, 18167.23, 18235.54, 18204.87, 18212.45, 18244.63, 18172.33, 18178.99, 0.09, 0.99, 0.38
136, 18125.79, 18156.79, 18225.03, 18194.32, 18201.99, 18234.13, 18161.87, 18168.55, 0.09, 0.99, 0.38
137, 18119.84, 18150.85, 18219.13, 18188.26, 18195.97, 18228.16, 18155.88, 18162.49, 0.09, 0.99, 0.38
138, 18087.79, 18118.68, 18187.12, 18156.16, 18163.90, 18196.17, 18123.78, 18130.46, 0.09, 0.99, 0.38
139, 18047.36, 18078.25, 18146.69, 18115.82, 18123.51, 18155.83, 18083.37, 18090.12, 0.09, 0.98, 0.38
140, 18031.24, 18062.09, 18130.53, 18099.62, 18107.39, 18139.60, 18067.18, 18073.93, 0.09, 0.98, 0.38
141, 18026.48, 18057.37, 18125.61, 18094.83, 18102.61, 18134.80, 18062.42, 18069.22, 0.09, 0.98, 0.38
142, 17995.63, 18026.48, 18094.70, 18063.96, 18071.74, 18104.00, 18031.51, 18038.24, 0.09, 0.98, 0.38
143, 17951.83, 17982.74, 18050.84, 18020.15, 18027.93, 18060.19, 17987.72, 17994.36, 0.09, 0.98, 0.38
144, 17931.62, 17962.55, 18030.71, 17999.95, 18007.75, 18039.96, 17967.54, 17974.22, 0.09, 0.98, 0.38
145, 17928.27, 17959.20, 18027.31, 17996.60, 18004.44, 18036.61, 17964.23, 17970.85, 0.09, 0.98, 0.37
146, 17901.33, 17932.27, 18000.37, 17969.71, 17977.60, 18009.67, 17937.30, 17943.85, 0.09, 0.98, 0.37
147, 17859.15, 17890.13, 17958.13, 17927.51, 17935.40, 17967.58, 17895.10, 17901.71, 0.09, 0.98, 0.37
148, 17834.26, 17865.19, 17933.21, 17902.58, 17910.41, 17942.64, 17870.13, 17876.79, 0.09, 0.98, 0.37
149, 17830.39, 17861.35, 17929.41, 17898.70, 17906.52, 17938.71, 17866.33, 17872.97, 0.09, 0.98, 0.37
150, 17812.73, 17843.64, 17911.75, 17881.04, 17888.86, 17921.09, 17848.61, 17855.29, 0.10, 0.99, 0.37
151, 17769.77, 17800.62, 17868.61, 17837.99, 17845.92, 17878.09, 17805.53, 17812.19, 0.10, 0.99, 0.37
152, 17737.70, 17768.65, 17836.60, 17805.98, 17813.91, 17846.10, 17773.53, 17780.23, 0.10, 0.99, 0.37
153, 17731.48, 17762.44, 17830.39, 17799.72, 17807.70, 17839.84, 17767.38, 17774.08, 0.10, 0.99, 0.37
154, 17719.01, 17749.94, 17817.92, 17787.29, 17795.23, 17827.37, 17754.86, 17761.48, 0.10, 0.99, 0.37
155, 17677.70, 17708.75, 17776.65, 17746.10, 17754.06, 17786.22, 17713.76, 17720.37, 0.10, 0.98, 0.37
156, 17642.92, 17673.95, 17741.76, 17711.25, 17719.19, 17751.42, 17678.93, 17685.53, 0.10, 0.98, 0.37
157, 17636.31, 17667.33, 17735.13, 17704.57, 17712.51, 17744.78, 17672.25, 17678.87, 0.10, 0.98, 0.37
158, 17626.52, 17657.52, 17725.29, 17694.82, 17702.80, 17734.95, 17662.53, 17669.12, 0.10, 0.98, 0.37
159, 17588.68, 17619.68, 17687.45, 17656.94, 17664.98, 17697.04, 17624.55, 17631.12, 0.10, 0.98, 0.37
160, 17550.39, 17581.41, 17649.32, 17618.70, 17626.70, 17658.86, 17586.26, 17592.90, 0.09, 0.98, 0.37
161, 17539.23, 17570.28, 17638.14, 17607.61, 17615.59, 17647.69, 17575.13, 17581.86, 0.09, 0.98, 0.37
162, 17532.69, 17563.78, 17631.48, 17600.97, 17608.97, 17641.14, 17568.49, 17575.24, 0.09, 0.98, 0.37
163, 17499.11, 17530.14, 17597.84, 17567.42, 17575.42, 17607.56, 17534.96, 17541.60, 0.09, 0.98, 0.37
164, 17456.60, 17487.67, 17555.33, 17524.97, 17533.00, 17565.12, 17492.41, 17499.16, 0.09, 0.98, 0.37
165, 17442.88, 17473.90, 17541.60, 17511.12, 17519.21, 17551.28, 17478.64, 17485.37, 0.09, 0.99, 0.37
166, 17437.87, 17468.92, 17536.55, 17506.04, 17514.07, 17546.25, 17473.59, 17480.27, 0.09, 0.99, 0.37
167, 17409.06, 17440.04, 17507.70, 17477.21, 17485.19, 17517.49, 17444.73, 17451.48, 0.09, 0.99, 0.37
168, 17369.05, 17400.07, 17467.64, 17437.22, 17445.33, 17477.46, 17404.81, 17411.52, 0.09, 0.99, 0.37
169, 17350.16, 17381.21, 17448.75, 17418.36, 17426.45, 17458.63, 17385.92, 17392.61, 0.09, 0.99, 0.37
170, 17344.82, 17375.87, 17443.44, 17412.99, 17421.17, 17453.29, 17380.58, 17387.33, 0.08, 0.98, 0.38
171, 17320.77, 17351.84, 17419.41, 17389.05, 17397.14, 17429.33, 17356.64, 17363.28, 0.08, 0.98, 0.38
172, 17276.40, 17307.54, 17375.02, 17344.69, 17352.75, 17384.90, 17312.28, 17318.89, 0.08, 0.98, 0.38
173, 17251.25, 17282.30, 17349.83, 17319.49, 17327.50, 17359.71, 17287.02, 17293.68, 0.08, 0.98, 0.38
174, 17246.92, 17277.94, 17345.42, 17315.14, 17323.18, 17355.39, 17282.68, 17289.37, 0.08, 0.98, 0.38
175, 17225.91, 17256.89, 17324.39, 17294.08, 17302.22, 17334.40, 17261.67, 17268.31, 0.08, 0.98, 0.38
176, 17183.10, 17214.02, 17281.61, 17251.28, 17259.46, 17291.58, 17218.84, 17225.48, 0.08, 0.98, 0.38
177, 17154.03, 17184.91, 17252.48, 17222.20, 17230.31, 17262.47, 17189.77, 17196.40, 0.08, 0.98, 0.38
178, 17150.00, 17180.89, 17248.33, 17218.06, 17226.22, 17258.34, 17185.67, 17192.22, 0.08, 0.98, 0.38
179, 17135.76, 17166.65, 17234.09, 17203.76, 17211.98, 17244.13, 17171.46, 17177.96, 0.08, 0.98, 0.38
180, 17095.13, 17126.20, 17193.59, 17163.28, 17171.53, 17203.64, 17130.96, 17137.51, 0.08, 0.98, 0.38
181, 17060.04, 17091.13, 17158.52, 17128.23, 17136.43, 17168.53, 17095.89, 17102.46, 0.09, 0.98, 0.38
182, 17053.98, 17085.07, 17152.42, 17122.17, 17130.31, 17162.50, 17089.76, 17096.36, 0.09, 0.98, 0.38
183, 17041.48, 17072.46, 17139.79, 17109.61, 17117.79, 17149.91, 17077.20, 17083.86, 0.09, 0.98, 0.38
184, 17005.12, 17036.12, 17103.35, 17073.22, 17081.49, 17113.57, 17040.88, 17047.43, 0.09, 0.98, 0.38
185, 16965.93, 16996.91, 17064.15, 17034.02, 17042.27, 17074.43, 17001.63, 17008.18, 0.09, 0.98, 0.38
186, 16952.77, 16983.84, 17050.96, 17020.90, 17029.06, 17061.33, 16988.44, 16995.01, 0.08, 0.98, 0.38
187, 16946.87, 16977.85, 17045.02, 17014.97, 17023.09, 17055.41, 16982.47, 16989.07, 0.08, 0.98, 0.38
188, 16915.55, 16946.58, 17013.77, 16983.62, 16991.79, 17024.07, 16951.23, 16957.80, 0.08, 0.98, 0.38
189, 16873.06, 16904.18, 16971.30, 16941.19, 16949.35, 16981.60, 16908.78, 16915.31, 0.08, 0.98, 0.38
190, 16855.94, 16887.03, 16954.09, 16924.07, 16932.27, 16964.48, 16891.64, 16898.16, 0.08, 0.98, 0.38
191, 16852.52, 16883.48, 16950.60, 16920.52, 16928.88, 16960.95, 16888.17, 16894.65, 0.09, 0.98, 0.37
192, 16823.62, 16854.53, 16921.63, 16891.55, 16900.00, 16932.05, 16859.23, 16865.75, 0.09, 0.98, 0.37
193, 16778.76, 16809.74, 16876.86, 16846.78, 16855.18, 16887.19, 16814.41, 16820.98, 0.09, 0.98, 0.37
194, 16756.81, 16787.81, 16854.87, 16824.83, 16833.28, 16865.26, 16792.42, 16798.97, 0.09, 0.98, 0.37
195, 16753.17, 16784.15, 16851.27, 16821.05, 16829.54, 16861.55, 16788.71, 16795.32, 0.09, 0.98, 0.37
196, 16728.58, 16759.61, 16826.68, 16796.51, 16804.80, 16836.99, 16764.12, 16770.74, 0.09, 0.98, 0.37
197, 16684.55, 16715.44, 16782.54, 16752.36, 16760.75, 16792.96, 16720.06, 16726.57, 0.09, 0.98, 0.37
198, 16658.15, 16689.11, 16756.03, 16726.05, 16734.39, 16766.51, 16693.62, 16700.13, 0.09, 0.98, 0.37
199, 16653.50, 16684.59, 16751.49, 16721.52, 16729.95, 16761.91, 16689.02, 16695.57, 0.09, 0.98, 0.37
200, 16637.59, 16668.63, 16735.64, 16705.54, 16714.03, 16746.06, 16673.15, 16679.61, 0.09, 0.98, 0.37
201, 16594.90, 16625.88, 16692.82, 16662.76, 16671.32, 16703.35, 16630.57, 16636.94, 0.09, 0.98, 0.37
202, 16564.68, 16595.83, 16662.69, 16632.69, 16641.25, 16673.24, 16600.42, 16606.88, 0.08, 0.98, 0.37
203, 16559.94, 16591.05, 16657.95, 16627.98, 16636.43, 16668.50, 16595.66, 16602.14, 0.08, 0.98, 0.37
204, 16546.01, 16577.10, 16643.85, 16613.96, 16622.37, 16654.49, 16581.66, 16588.10, 0.08, 0.98, 0.37
205, 16506.34, 16537.47, 16604.19, 16574.38, 16582.74, 16614.83, 16541.99, 16548.43, 0.08, 0.98, 0.37
206, 16467.58, 16498.67, 16565.46, 16535.62, 16544.00, 16576.08, 16503.25, 16509.69, 0.08, 0.98, 0.37
207, 16458.84, 16489.87, 16556.65, 16526.79, 16535.24, 16567.29, 16494.42, 16500.91, 0.09, 0.99, 0.37
208, 16452.07, 16483.09, 16549.88, 16520.02, 16528.47, 16560.50, 16487.65, 16494.13, 0.09, 0.99, 0.37
209, 16417.56, 16448.69, 16515.46, 16485.55, 16494.02, 16526.07, 16453.19, 16459.69, 0.09, 0.99, 0.37
210, 16377.68, 16408.77, 16475.45, 16445.59, 16454.04, 16486.06, 16413.29, 16419.72, 0.09, 0.99, 0.37
211, 16364.76, 16395.88, 16462.44, 16432.62, 16441.07, 16473.17, 16400.28, 16406.74, 0.09, 0.99, 0.37
212, 16359.04, 16390.22, 16456.72, 16426.95, 16435.44, 16467.54, 16394.54, 16401.04, 0.09, 0.99, 0.37
213, 16328.49, 16359.64, 16426.19, 16396.43, 16404.97, 16437.05, 16364.05, 16370.51, 0.09, 0.99, 0.37
214, 16285.95, 16317.02, 16383.54, 16353.74, 16362.39, 16394.42, 16321.42, 16327.93, 0.09, 0.99, 0.37
215, 16265.52, 16296.57, 16363.06, 16333.22, 16341.90, 16373.90, 16300.93, 16307.43, 0.09, 0.99, 0.37
216, 16261.83, 16292.92, 16359.40, 16329.56, 16338.19, 16370.22, 16297.19, 16303.74, 0.09, 0.99, 0.37
217, 16238.27, 16269.39, 16335.86, 16306.07, 16314.69, 16346.75, 16273.72, 16280.29, 0.09, 0.99, 0.37
218, 16194.20, 16225.35, 16291.74, 16262.08, 16270.64, 16302.69, 16229.69, 16236.26, 0.09, 0.99, 0.37
219, 16169.61, 16200.70, 16267.22, 16237.49, 16246.07, 16277.99, 16205.13, 16211.63, 0.09, 0.99, 0.37
220, 16165.52, 16196.50, 16263.02, 16233.27, 16241.96, 16273.92, 16200.90, 16207.43, 0.09, 0.99, 0.37
221, 16146.14, 16177.16, 16243.66, 16213.87, 16222.56, 16254.55, 16181.52, 16187.98, 0.09, 0.99, 0.37
222, 16104.19, 16135.25, 16201.75, 16171.98, 16180.72, 16212.64, 16139.61, 16146.07, 0.09, 0.99, 0.37
223, 16075.44, 16106.53, 16172.94, 16143.21, 16152.00, 16183.91, 16110.94, 16117.42, 0.09, 0.99, 0.37
224, 16069.79, 16100.90, 16167.31, 16137.58, 16146.32, 16178.26, 16105.24, 16111.74, 0.09, 0.99, 0.37
225, 16053.45, 16084.61, 16150.95, 16121.22, 16130.00, 16161.94, 16088.92, 16095.38, 0.09, 0.99, 0.37
226, 16014.26, 16045.40, 16111.67, 16082.04, 16090.82, 16122.74, 16049.74, 16056.20, 0.09, 0.99, 0.37
227, 15980.67, 16011.76, 16078.08, 16048.40, 16057.20, 16089.14, 16016.10, 16022.56, 0.09, 0.99, 0.37
228, 15971.53, 16002.64, 16068.89, 16039.37, 16048.02, 16080.05, 16007.02, 16013.39, 0.09, 0.99, 0.37
229, 15962.10, 15993.21, 16059.46, 16029.93, 16038.58, 16070.57, 15997.54, 16003.94, 0.09, 0.99, 0.37
230, 15925.71, 15956.87, 16023.07, 15993.54, 16002.31, 16034.13, 15961.07, 15967.57, 0.09, 0.99, 0.37
231, 15888.31, 15919.45, 15985.61, 15956.24, 15964.93, 15996.74, 15923.63, 15930.24, 0.09, 0.99, 0.37
232, 15879.89, 15911.00, 15977.23, 15947.90, 15956.49, 15988.38, 15915.38, 15921.79, 0.09, 0.99, 0.37
233, 15871.59, 15902.73, 15969.05, 15939.59, 15948.21, 15980.13, 15907.07, 15913.53, 0.09, 0.99, 0.38
234, 15833.82, 15864.98, 15931.12, 15901.72, 15910.42, 15942.40, 15869.31, 15875.75, 0.09, 0.99, 0.38
235, 15793.56, 15824.72, 15890.82, 15861.42, 15870.21, 15902.10, 15829.15, 15835.52, 0.09, 0.99, 0.38
236, 15778.30, 15809.37, 15875.44, 15846.02, 15854.85, 15886.73, 15813.70, 15820.12, 0.09, 0.99, 0.38
237, 15771.37, 15802.53, 15868.58, 15839.14, 15847.92, 15879.75, 15806.71, 15813.14, 0.09, 0.99, 0.38
238, 15741.08, 15772.24, 15838.24, 15808.74, 15817.64, 15849.44, 15776.44, 15782.92, 0.09, 0.99, 0.38
239, 15698.70, 15729.84, 15795.82, 15766.38, 15775.23, 15807.06, 15734.11, 15740.52, 0.09, 0.99, 0.38
240, 15680.28, 15711.40, 15777.38, 15748.03, 15756.93, 15788.62, 15715.71, 15722.02, 0.09, 0.99, 0.38
241, 15675.12, 15706.10, 15772.15, 15742.71, 15751.63, 15783.37, 15710.44, 15716.72, 0.09, 0.99, 0.38
242, 15652.57, 15683.66, 15749.73, 15720.27, 15729.12, 15760.91, 15687.97, 15694.25, 0.09, 0.99, 0.38
243, 15608.16, 15639.38, 15705.34, 15675.90, 15684.80, 15716.63, 15643.52, 15649.95, 0.09, 0.99, 0.38
244, 15583.66, 15614.82, 15680.78, 15651.38, 15660.17, 15692.02, 15618.95, 15625.39, 0.09, 0.99, 0.38
245, 15581.20, 15612.33, 15678.23, 15648.81, 15657.71, 15689.52, 15616.47, 15622.86, 0.09, 0.99, 0.38
246, 15561.71, 15592.93, 15658.76, 15629.39, 15638.35, 15670.09, 15597.02, 15603.51, 0.09, 0.99, 0.38
247, 15519.35, 15550.55, 15616.43, 15587.06, 15596.00, 15627.76, 15554.71, 15561.19, 0.09, 0.99, 0.38
248, 15489.16, 15520.25, 15586.27, 15556.93, 15565.84, 15597.56, 15524.60, 15530.97, 0.09, 0.99, 0.38
249, 15483.41, 15514.50, 15580.44, 15551.07, 15560.05, 15591.82, 15518.73, 15525.25, 0.09, 0.99, 0.38
250, 15468.30, 15499.41, 15565.22, 15535.92, 15544.92, 15576.66, 15503.53, 15510.14, 0.09, 0.99, 0.38
251, 15427.02, 15458.18, 15523.82, 15494.59, 15503.57, 15535.40, 15462.18, 15468.73, 0.09, 0.99, 0.38
252, 15394.27, 15425.47, 15491.03, 15461.80, 15470.89, 15502.72, 15429.52, 15435.91, 0.09, 0.99, 0.38
253, 15385.24, 15416.42, 15482.00, 15452.74, 15461.80, 15493.58, 15420.49, 15426.84, 0.09, 0.99, 0.38
254, 15374.83, 15406.03, 15471.63, 15442.42, 15451.40, 15483.14, 15410.05, 15416.47, 0.09, 0.99, 0.38
255, 15336.51, 15367.72, 15433.30, 15404.08, 15413.16, 15444.85, 15371.72, 15378.13, 0.09, 0.99, 0.38
0, 15296.37, 15327.48, 15393.13, 15363.90, 15372.97, 15404.71, 15331.60, 15337.95, 0.09, 0.99, 0.38
1, 15286.00, 15317.07, 15382.74, 15353.50, 15362.60, 15394.34, 15321.20, 15327.60, 0.09, 0.99, 0.38
2, 15284.93, 15316.06, 15381.67, 15352.43, 15361.46, 15393.24, 15320.13, 15326.48, 0.09, 0.99, 0.37
3, 15253.63, 15284.79, 15350.37, 15321.14, 15330.14, 15361.97, 15288.82, 15295.19, 0.09, 0.99, 0.37
4, 15212.17, 15243.31, 15308.82, 15279.58, 15288.68, 15320.51, 15247.31, 15253.75, 0.09, 0.99, 0.37
5, 15192.84, 15223.97, 15289.49, 15260.29, 15269.35, 15301.09, 15227.97, 15234.43, 0.09, 0.99, 0.37
6, 15187.32, 15218.39, 15283.99, 15254.84, 15263.83, 15295.66, 15222.52, 15228.94, 0.09, 0.99, 0.37
7, 15158.64, 15189.75, 15255.24, 15226.08, 15235.15, 15267.02, 15193.82, 15200.24, 0.09, 0.99, 0.37
8, 15117.33, 15148.54, 15213.98, 15184.77, 15193.96, 15225.76, 15152.54, 15158.95, 0.09, 0.99, 0.38
9, 15097.55, 15128.73, 15194.13, 15165.01, 15174.13, 15205.96, 15132.82, 15139.19, 0.09, 0.99, 0.38
10, 15094.45, 15125.63, 15191.09, 15161.97, 15171.11, 15202.83, 15129.76, 15136.06, 0.09, 0.99, 0.38
11, 15073.17, 15104.39, 15169.77, 15140.65, 15149.83, 15181.48, 15108.42, 15114.74, 0.09, 0.99, 0.38
12, 15028.06, 15059.38, 15124.62, 15095.47, 15104.68, 15136.38, 15063.24, 15069.61, 0.09, 0.99, 0.38
13, 15001.84, 15033.18, 15098.45, 15069.30, 15078.55, 15110.25, 15037.00, 15043.44, 0.09, 0.99, 0.38
14, 15001.15, 15032.42, 15097.69, 15068.70, 15077.84, 15109.51, 15036.38, 15042.79, 0.09, 0.99, 0.38
15, 14983.09, 15014.25, 15079.63, 15050.52, 15059.69, 15091.29, 15018.20, 15024.60, 0.09, 0.99, 0.38
16, 14940.08, 14971.18, 15036.58, 15007.54, 15016.68, 15048.29, 14975.22, 14981.55, 0.09, 0.99, 0.38
17, 14907.50, 14938.63, 15003.90, 14974.98, 14984.07, 15015.70, 14942.61, 14948.94, 0.09, 0.99, 0.38
18, 14902.00, 14933.07, 14998.40, 14969.39, 14978.64, 15010.25, 14937.09, 14943.44, 0.09, 0.98, 0.37
19, 14890.11, 14921.26, 14986.49, 14957.52, 14966.71, 14998.33, 14925.24, 14931.61, 0.09, 0.98, 0.37
20, 14849.83, 14881.03, 14946.10, 14917.13, 14926.41, 14958.01, 14885.01, 14891.31, 0.09, 0.98, 0.37
21, 14812.25, 14843.46, 14908.59, 14879.62, 14888.90, 14920.53, 14847.46, 14853.74, 0.09, 0.98, 0.37
22, 14803.76, 14834.88, 14900.07, 14871.15, 14880.43, 14912.03, 14838.92, 14845.27, 0.09, 0.98, 0.37
23, 14792.76, 14823.92, 14889.19, 14860.18, 14869.43, 14901.04, 14827.88, 14834.32, 0.09, 0.99, 0.38
24, 14756.60, 14787.85, 14853.00, 14824.10, 14833.27, 14864.94, 14791.89, 14798.26, 0.09, 0.99, 0.38
25, 14719.12, 14750.27, 14815.45, 14786.53, 14795.80, 14827.41, 14754.23, 14760.67, 0.09, 0.99, 0.38
26, 14706.04, 14737.15, 14802.26, 14773.34, 14782.66, 14814.27, 14741.11, 14747.57, 0.09, 0.99, 0.38
27, 14700.00, 14731.21, 14796.30, 14767.44, 14776.67, 14808.34, 14735.10, 14741.56, 0.09, 0.99, 0.38
28, 14670.01, 14701.28, 14766.30, 14737.38, 14746.61, 14778.37, 14705.12, 14711.49, 0.09, 0.99, 0.38
29, 14629.08, 14660.35, 14725.28, 14696.34, 14705.73, 14737.42, 14664.22, 14670.52, 0.09, 0.99, 0.38
30, 14611.40, 14642.54, 14707.49, 14678.59, 14688.02, 14719.61, 14646.49, 14652.69, 0.09, 0.99, 0.38
31, 14604.96, 14636.17, 14701.12, 14672.24, 14681.70, 14713.17, 14640.06, 14646.29, 0.09, 0.99, 0.38
32, 14577.54, 14608.70, 14673.72, 14644.79, 14654.21, 14685.77, 14612.65, 14618.82, 0.09, 0.99, 0.38
33, 14533.93, 14565.02, 14630.04, 14601.08, 14610.51, 14642.14, 14569.00, 14575.19, 0.09, 0.99, 0.38
34, 14508.92, 14540.05, 14605.08, 14576.11, 14585.50, 14617.10, 14543.92, 14550.29, 0.09, 0.99, 0.38
35, 14505.12, 14536.32, 14601.37, 14572.40, 14581.74, 14613.37, 14540.26, 14546.51, 0.09, 0.99, 0.38
36, 14486.30, 14517.52, 14582.50, 14553.56, 14562.99, 14594.57, 14521.37, 14527.69, 0.09, 0.99, 0.38
37, 14445.62, 14476.73, 14541.66, 14512.72, 14522.22, 14553.80, 14480.60, 14486.88, 0.09, 0.99, 0.38
38, 14417.92, 14449.02, 14513.95, 14485.03, 14494.52, 14526.08, 14452.91, 14459.21, 0.09, 0.99, 0.38
39, 14414.37, 14445.53, 14510.44, 14481.54, 14491.04, 14522.51, 14449.35, 14455.66, 0.08, 0.99, 0.38
40, 14400.29, 14431.40, 14496.25, 14467.46, 14476.91, 14508.43, 14435.29, 14441.57, 0.08, 0.99, 0.38
41, 14357.06, 14388.17, 14453.02, 14424.21, 14433.73, 14465.27, 14392.04, 14398.32, 0.08, 0.99, 0.38
42, 14323.74, 14354.76, 14419.62, 14390.81, 14400.36, 14431.83, 14358.67, 14364.93, 0.08, 0.99, 0.38
43, 14316.65, 14347.76, 14412.52, 14383.82, 14393.36, 14424.79, 14351.67, 14357.82, 0.08, 0.99, 0.38
44, 14305.07, 14336.32, 14400.98, 14372.28, 14381.78, 14413.28, 14340.10, 14346.38, 0.08, 0.99, 0.38
45, 14265.78, 14296.98, 14361.62, 14332.92, 14342.51, 14373.92, 14300.67, 14307.06, 0.08, 0.99, 0.38
46, 14229.19, 14260.32, 14324.99, 14296.26, 14305.83, 14337.28, 14264.08, 14270.40, 0.08, 0.99, 0.38
47, 14216.85, 14248.05, 14312.74, 14283.99, 14293.54, 14324.99, 14251.85, 14258.04, 0.08, 0.99, 0.38
48, 14209.05, 14240.21, 14304.94, 14276.17, 14285.76, 14317.19, 14244.12, 14250.24, 0.08, 0.99, 0.38
49, 14175.34, 14206.39, 14271.10, 14242.33, 14251.96, 14283.43, 14210.39, 14216.47, 0.09, 0.98, 0.38
50, 14135.11, 14166.27, 14230.89, 14202.16, 14211.86, 14243.22, 14170.13, 14176.35, 0.09, 0.98, 0.38
51, 14120.54, 14151.69, 14216.29, 14187.57, 14197.31, 14228.65, 14155.47, 14161.84, 0.09, 0.98, 0.38
52, 14115.55, 14146.73, 14211.26, 14182.65, 14192.37, 14223.73, 14150.51, 14156.79, 0.09, 0.98, 0.38
53, 14085.44, 14116.65, 14181.18, 14152.59, 14162.27, 14193.63, 14120.45, 14126.64, 0.09, 0.98, 0.38
54, 14043.22, 14074.31, 14138.91, 14110.30, 14119.95, 14151.38, 14078.09, 14084.37, 0.09, 0.98, 0.38
55, 14025.23, 14056.43, 14120.98, 14092.28, 14102.07, 14133.41, 14060.23, 14066.44, 0.09, 0.98, 0.38
56, 14022.86, 14054.04, 14118.68, 14089.87, 14099.64, 14131.00, 14057.91, 14064.14, 0.09, 0.98, 0.38
57, 13997.87, 14029.07, 14093.69, 14064.95, 14074.63, 14105.98, 14032.85, 14039.22, 0.09, 0.98, 0.38
58, 13955.60, 13986.78, 14051.29, 14022.70, 14032.40, 14063.78, 13990.58, 13996.93, 0.09, 0.98, 0.38
59, 13930.93, 13962.15, 14026.59, 13998.00, 14007.75, 14039.11, 13966.00, 13972.28, 0.09, 0.99, 0.38
60, 13925.18, 13956.41, 14020.89, 13992.26, 14002.00, 14033.45, 13960.21, 13966.44, 0.09, 0.99, 0.38
61, 13904.84, 13936.02, 14000.44, 13971.83, 13981.60, 14012.98, 13939.75, 13946.06, 0.09, 0.99, 0.38
62, 13862.69, 13893.78, 13958.24, 13929.63, 13939.46, 13970.85, 13897.60, 13903.99, 0.09, 0.99, 0.38
63, 13834.97, 13866.08, 13930.48, 13901.91, 13911.70, 13943.08, 13869.91, 13876.25, 0.09, 0.99, 0.38
64, 13828.91, 13860.07, 13924.55, 13895.92, 13905.65, 13937.00, 13863.87, 13870.24, 0.09, 0.99, 0.38
65, 13813.29, 13844.47, 13908.98, 13880.37, 13890.22, 13921.49, 13848.34, 13854.64, 0.08, 0.98, 0.38
66, 13772.54, 13803.63, 13868.05, 13839.42, 13849.36, 13880.61, 13807.52, 13813.74, 0.08, 0.98, 0.38
67, 13740.15, 13771.29, 13835.66, 13807.07, 13816.93, 13848.27, 13775.04, 13781.35, 0.08, 0.98, 0.38
68, 13731.77, 13763.04, 13827.21, 13798.74, 13808.62, 13839.91, 13766.62, 13772.97, 0.08, 0.98, 0.38
69, 13722.70, 13753.83, 13818.09, 13789.64, 13799.43, 13830.79, 13757.57, 13763.94, 0.08, 0.98, 0.38
70, 13685.77, 13716.88, 13781.12, 13752.67, 13762.48, 13793.78, 13720.60, 13726.94, 0.09, 0.99, 0.38
71, 13644.49, 13675.62, 13739.84, 13711.32, 13721.24, 13752.45, 13679.33, 13685.62, 0.09, 0.99, 0.38
72, 13633.04, 13664.25, 13728.46, 13699.92, 13709.91, 13741.09, 13667.96, 13674.22, 0.09, 0.99, 0.38
73, 13626.27, 13657.56, 13721.69, 13693.21, 13703.21, 13734.34, 13661.18, 13667.47, 0.09, 0.99, 0.38
74, 13592.01, 13623.21, 13687.49, 13658.99, 13668.92, 13700.03, 13626.90, 13633.22, 0.09, 0.99, 0.38
75, 13551.13, 13582.33, 13646.50, 13618.02, 13627.97, 13659.24, 13586.04, 13592.41, 0.09, 0.98, 0.38
76, 13537.58, 13568.80, 13632.84, 13604.46, 13614.36, 13645.67, 13572.43, 13578.77, 0.09, 0.98, 0.38
77, 13534.63, 13565.74, 13629.85, 13601.42, 13611.36, 13642.66, 13569.50, 13575.69, 0.09, 0.98, 0.38
78, 13504.30, 13535.39, 13599.47, 13571.11, 13581.01, 13612.26, 13539.14, 13545.25, 0.09, 0.98, 0.38
79, 13459.64, 13490.77, 13554.75, 13526.36, 13536.37, 13567.60, 13494.49, 13500.63, 0.09, 0.98, 0.38
80, 13440.80, 13471.93, 13535.90, 13507.52, 13517.62, 13548.73, 13475.69, 13481.81, 0.09, 0.98, 0.38
81, 13438.52, 13469.67, 13533.67, 13505.28, 13515.38, 13546.43, 13473.38, 13479.51, 0.09, 0.98, 0.38
82, 13415.99, 13447.08, 13511.14, 13482.79, 13492.85, 13523.99, 13450.85, 13457.02, 0.09, 0.98, 0.38
83, 13373.70, 13404.81, 13468.80, 13440.51, 13450.59, 13481.68, 13408.54, 13414.69, 0.09, 0.98, 0.38
84, 13348.71, 13379.89, 13443.90, 13415.56, 13425.60, 13456.78, 13383.62, 13389.77, 0.09, 0.98, 0.38
85, 13345.06, 13376.20, 13440.19, 13411.81, 13421.86, 13453.04, 13379.93, 13386.08, 0.09, 0.98, 0.39
86, 13325.01, 13356.24, 13420.12, 13391.73, 13401.90, 13433.02, 13359.91, 13366.12, 0.09, 0.98, 0.39
87, 13283.64, 13314.89, 13378.70, 13350.36, 13360.60, 13391.67, 13318.51, 13324.84, 0.09, 0.98, 0.39
88, 13254.00, 13285.12, 13349.11, 13320.72, 13330.89, 13361.98, 13288.85, 13295.06, 0.09, 0.98, 0.39
89, 13247.77, 13278.86, 13342.85, 13314.55, 13324.63, 13355.70, 13282.55, 13288.78, 0.09, 0.98, 0.39
90, 13233.91, 13265.00, 13328.84, 13300.56, 13310.64, 13341.76, 13268.62, 13274.92, 0.09, 0.98, 0.39
91, 13192.80, 13223.98, 13287.80, 13259.48, 13269.67, 13300.61, 13227.61, 13233.91, 0.09, 0.98, 0.38
92, 13156.64, 13187.82, 13251.59, 13223.25, 13233.48, 13264.46, 13191.42, 13197.68, 0.09, 0.98, 0.38
93, 13151.36, 13182.41, 13246.11, 13217.97, 13228.10, 13259.23, 13186.10, 13192.31, 0.09, 0.98, 0.38
94, 13141.35, 13172.49, 13236.12, 13207.94, 13218.13, 13249.24, 13176.11, 13182.32, 0.09, 0.98, 0.38
95, 13106.12, 13137.26, 13200.90, 13172.73, 13182.95, 13213.95, 13140.88, 13147.03, 0.09, 0.98, 0.38
96, 13066.11, 13097.21, 13160.82, 13132.66, 13142.85, 13173.89, 13100.87, 13106.93, 0.09, 0.98, 0.38
97, 13052.81, 13083.95, 13147.65, 13119.42, 13129.62, 13160.62, 13087.62, 13093.72, 0.09, 0.98, 0.38
98, 13046.00, 13077.20, 13140.81, 13112.67, 13122.87, 13153.73, 13080.84, 13086.88, 0.09, 0.98, 0.38
99, 13013.34, 13044.63, 13108.16, 13080.08, 13090.21, 13121.17, 13048.14, 13054.29, 0.09, 0.98, 0.38
100, 12974.16, 13005.23, 13068.80, 13040.77, 13050.96, 13081.87, 13008.85, 13014.95, 0.09, 0.98, 0.38
101, 12956.50, 12987.66, 13051.29, 13023.24, 13033.41, 13064.24, 12991.24, 12997.41, 0.09, 0.98, 0.37
102, 12950.33, 12981.51, 13045.24, 13017.07, 13027.36, 13058.20, 12985.16, 12991.37, 0.09, 0.98, 0.37
103, 12922.26, 12953.42, 13017.05, 12988.98, 12999.26, 13030.13, 12957.02, 12963.23, 0.09, 0.98, 0.37
104, 12878.83, 12909.88, 12973.42, 12945.53, 12955.70, 12986.56, 12913.54, 12919.80, 0.09, 0.98, 0.37
105, 12858.20, 12889.20, 12952.75, 12924.85, 12935.04, 12965.87, 12892.80, 12899.06, 0.09, 0.98, 0.37
106, 12854.00, 12884.89, 12948.50, 12920.51, 12930.77, 12961.60, 12888.53, 12894.77, 0.09, 0.98, 0.38
107, 12831.82, 12862.76, 12926.35, 12898.41, 12908.65, 12939.40, 12866.42, 12872.57, 0.09, 0.98, 0.38
108, 12789.80, 12820.80, 12884.39, 12856.52, 12866.76, 12897.49, 12824.49, 12830.66, 0.09, 0.98, 0.38
109, 12763.85, 12794.85, 12858.42, 12830.59, 12840.81, 12871.50, 12798.52, 12804.78, 0.09, 0.98, 0.38
110, 12759.18, 12790.20, 12853.68, 12825.83, 12836.07, 12866.74, 12793.76, 12799.95, 0.09, 0.98, 0.38
111, 12742.46, 12773.44, 12836.96, 12809.14, 12819.33, 12850.08, 12777.11, 12783.21, 0.09, 0.99, 0.38
112, 12701.96, 12732.98, 12796.46, 12768.66, 12778.80, 12809.58, 12736.60, 12742.84, 0.09, 0.99, 0.38
113, 12669.95, 12700.89, 12764.43, 12736.60, 12746.80, 12777.55, 12704.42, 12710.70, 0.09, 0.99, 0.38
114, 12663.13, 12693.96, 12757.55, 12729.74, 12739.85, 12770.67, 12697.65, 12703.88, 0.09, 0.99, 0.38
115, 12654.62, 12685.44, 12748.99, 12721.25, 12731.49, 12762.20, 12689.22, 12695.37, 0.09, 0.99, 0.38
116, 12613.49, 12644.27, 12707.77, 12680.12, 12690.38, 12720.96, 12648.00, 12654.17, 0.09, 0.99, 0.38
117, 12574.44, 12605.33, 12668.63, 12641.03, 12651.15, 12681.89, 12608.86, 12615.03, 0.09, 0.99, 0.38
118, 12564.16, 12595.21, 12658.44, 12630.84, 12641.05, 12671.72, 12598.69, 12604.95, 0.09, 0.99, 0.38
119, 12557.23, 12588.26, 12651.56, 12623.95, 12634.19, 12664.79, 12591.83, 12597.98, 0.09, 0.99, 0.38
120, 12523.39, 12554.35, 12617.65, 12589.98, 12600.26, 12630.84, 12557.83, 12564.05, 0.09, 0.99, 0.38
121, 12483.90, 12514.88, 12578.02, 12550.42, 12560.79, 12591.32, 12518.27, 12524.64, 0.09, 0.99, 0.38
122, 12471.00, 12501.91, 12565.10, 12537.50, 12547.87, 12578.44, 12505.42, 12511.77, 0.10, 0.99, 0.37
123, 12465.30, 12496.26, 12559.44, 12531.80, 12542.21, 12572.77, 12499.72, 12506.05, 0.10, 0.99, 0.37
124, 12433.96, 12464.92, 12528.02, 12500.37, 12510.83, 12541.41, 12468.32, 12474.62, 0.10, 0.99, 0.37
125, 12391.25, 12422.09, 12485.19, 12457.50, 12468.00, 12498.54, 12425.54, 12431.77, 0.10, 0.99, 0.37
126, 12372.27, 12403.23, 12466.26, 12438.57, 12449.12, 12479.63, 12406.63, 12412.88, 0.10, 0.99, 0.37
127, 12371.15, 12402.16, 12465.19, 12437.52, 12448.13, 12478.60, 12405.58, 12411.86, 0.09, 0.99, 0.38
128, 12344.67, 12375.65, 12438.66, 12411.01, 12421.56, 12452.04, 12379.09, 12385.30, 0.09, 0.99, 0.38
129, 12301.44, 12332.31, 12395.23, 12367.67, 12378.19, 12408.75, 12335.73, 12341.96, 0.09, 0.99, 0.38
130, 12280.00, 12310.85, 12373.79, 12346.23, 12356.83, 12387.40, 12314.38, 12320.53, 0.09, 0.99, 0.38
131, 12278.37, 12309.28, 12372.23, 12344.67, 12355.35, 12385.79, 12312.86, 12318.98, 0.09, 0.99, 0.38
132, 12257.79, 12288.79, 12351.77, 12324.13, 12334.79, 12365.23, 12292.36, 12298.47, 0.09, 0.99, 0.37
133, 12213.84, 12244.80, 12307.56, 12280.18, 12290.73, 12321.26, 12248.31, 12254.52, 0.09, 0.99, 0.37
134, 12186.19, 12217.06, 12279.89, 12252.53, 12262.99, 12293.53, 12220.61, 12226.81, 0.09, 0.99, 0.37
135, 12180.45, 12211.34, 12274.15, 12246.79, 12257.34, 12287.78, 12214.92, 12221.13, 0.09, 0.99, 0.37
136, 12166.08, 12197.06, 12259.89, 12232.48, 12243.01, 12273.43, 12200.59, 12206.80, 0.09, 0.99, 0.37
137, 12125.93, 12156.93, 12219.59, 12192.27, 12202.73, 12233.22, 12160.33, 12166.57, 0.10, 0.98, 0.38
138, 12089.48, 12120.30, 12182.97, 12155.64, 12166.30, 12196.70, 12123.76, 12129.98, 0.10, 0.98, 0.38
139, 12081.45, 12112.28, 12175.02, 12147.59, 12158.43, 12188.76, 12115.83, 12121.95, 0.10, 0.98, 0.38
140, 12073.21, 12104.01, 12166.84, 12139.43, 12150.12, 12180.52, 12107.69, 12113.71, 0.10, 0.98, 0.38
141, 12035.72, 12066.50, 12129.15, 12101.88, 12112.59, 12142.94, 12070.05, 12076.11, 0.10, 0.98, 0.38
142, 11996.27, 12027.12, 12089.70, 12062.52, 12073.16, 12103.49, 12030.65, 12036.73, 0.09, 0.98, 0.38
143, 11985.79, 12016.57, 12079.24, 12052.02, 12062.70, 12093.03, 12020.21, 12026.38, 0.09, 0.98, 0.38
144, 11978.32, 12009.10, 12071.82, 12044.50, 12055.28, 12085.59, 12012.79, 12018.82, 0.09, 0.98, 0.38
145, 11944.35, 11975.15, 12037.73, 12010.60, 12021.39, 12051.64, 11978.79, 11984.89, 0.09, 0.98, 0.38
146, 11907.31, 11938.11, 12000.63, 11973.52, 11984.25, 12014.53, 11941.67, 11947.81, 0.09, 0.98, 0.38
147, 11895.75, 11926.58, 11988.96, 11961.89, 11972.58, 12002.98, 11930.06, 11936.26, 0.09, 0.98, 0.38
148, 11892.22, 11922.96, 11985.43, 11958.32, 11969.05, 11999.29, 11926.47, 11932.66, 0.09, 0.98, 0.38
149, 11860.73, 11891.46, 11953.94, 11926.73, 11937.55, 11967.95, 11894.99, 11901.05, 0.09, 0.98, 0.38
150, 11816.50, 11847.27, 11909.66, 11882.50, 11893.34, 11923.74, 11850.80, 11856.91, 0.09, 0.98, 0.38
151, 11798.50, 11829.15, 11891.62, 11864.51, 11875.35, 11905.68, 11832.83, 11838.96, 0.09, 0.98, 0.38
152, 11795.53, 11826.15, 11888.69, 11861.58, 11872.35, 11902.71, 11829.75, 11835.90, 0.09, 0.98, 0.38
153, 11769.09, 11799.73, 11862.25, 11835.09, 11845.89, 11876.20, 11803.29, 11809.41, 0.09, 0.98, 0.38
154, 11723.00, 11753.69, 11816.18, 11789.07, 11799.93, 11830.20, 11757.33, 11763.41, 0.09, 0.98, 0.38
155, 11698.59, 11729.37, 11791.84, 11764.73, 11775.57, 11805.81, 11732.92, 11739.16, 0.09, 0.98, 0.38
156, 11695.97, 11726.75, 11789.11, 11762.07, 11772.95, 11803.11, 11730.35, 11736.41, 0.09, 0.98, 0.38
157, 11677.98, 11708.76, 11771.14, 11744.08, 11754.92, 11785.16, 11712.36, 11718.37, 0.09, 0.98, 0.38
158, 11634.15, 11664.88, 11727.31, 11700.27, 11711.15, 11741.35, 11668.53, 11674.58, 0.09, 0.98, 0.37
159, 11603.93, 11634.66, 11697.14, 11670.09, 11681.00, 11711.26, 11638.35, 11644.45, 0.09, 0.98, 0.37
160, 11600.17, 11630.86, 11693.31, 11666.18, 11677.07, 11707.35, 11634.55, 11640.59, 0.09, 0.98, 0.37
161, 11585.74, 11616.38, 11678.79, 11651.74, 11662.56, 11692.73, 11620.00, 11626.13, 0.09, 0.98, 0.37
162, 11546.53, 11577.15, 11639.56, 11612.45, 11623.40, 11653.53, 11580.84, 11586.94, 0.09, 0.98, 0.37
163, 11512.09, 11542.69, 11605.20, 11578.07, 11589.04, 11619.17, 11546.37, 11552.45, 0.09, 0.98, 0.37
164, 11506.57, 11537.12, 11599.55, 11572.57, 11583.48, 11613.63, 11540.79, 11546.87, 0.09, 0.98, 0.37
165, 11496.55, 11527.11, 11589.51, 11562.51, 11573.44, 11603.53, 11530.77, 11536.79, 0.09, 0.98, 0.37
166, 11460.10, 11490.74, 11553.15, 11526.08, 11537.03, 11567.09, 11494.38, 11500.37, 0.09, 0.98, 0.37
167, 11423.13, 11453.68, 11516.27, 11489.20, 11500.15, 11530.15, 11457.41, 11463.54, 0.09, 0.98, 0.37
168, 11413.38, 11443.91, 11506.52, 11479.41, 11490.32, 11520.36, 11447.69, 11453.77, 0.09, 0.98, 0.38
169, 11407.55, 11438.01, 11500.60, 11473.42, 11484.46, 11514.46, 11441.83, 11447.76, 0.09, 0.98, 0.38
170, 11374.20, 11404.73, 11467.20, 11440.25, 11451.20, 11481.13, 11408.53, 11414.54, 0.09, 0.98, 0.38
171, 11332.33, 11362.98, 11425.38, 11398.54, 11409.40, 11439.38, 11366.69, 11372.75, 0.09, 0.98, 0.38
172, 11317.13, 11347.73, 11410.03, 11383.23, 11394.16, 11424.16, 11351.40, 11357.48, 0.09, 0.98, 0.38
173, 11312.69, 11343.24, 11405.51, 11378.58, 11389.62, 11419.51, 11346.84, 11352.94, 0.09, 0.99, 0.37
174, 11284.48, 11315.08, 11377.46, 11350.46, 11361.53, 11391.48, 11318.81, 11324.82, 0.09, 0.99, 0.37
175, 11242.73, 11273.28, 11335.71, 11308.78, 11319.75, 11349.68, 11277.04, 11283.03, 0.09, 0.99, 0.37
176, 11220.91, 11251.33, 11313.80, 11286.92, 11297.85, 11327.77, 11255.18, 11261.17, 0.09, 0.99, 0.37
177, 11218.47, 11248.85, 11311.26, 11284.37, 11295.32, 11325.32, 11252.65, 11258.71, 0.09, 0.99, 0.37
178, 11195.83, 11226.25, 11288.64, 11261.77, 11272.77, 11302.67, 11230.05, 11236.02, 0.09, 0.99, 0.37
179, 11154.03, 11184.50, 11247.00, 11220.08, 11231.15, 11261.01, 11188.37, 11194.38, 0.09, 0.99, 0.37
180, 11129.25, 11159.85, 11222.18, 11195.34, 11206.40, 11236.31, 11163.65, 11169.61, 0.09, 0.99, 0.37
181, 11126.16, 11156.72, 11218.92, 11192.19, 11203.16, 11233.11, 11160.43, 11166.48, 0.09, 0.99, 0.37
182, 11107.70, 11138.16, 11200.46, 11173.70, 11184.72, 11214.58, 11141.99, 11148.02, 0.09, 0.99, 0.37
183, 11064.72, 11095.18, 11157.45, 11130.68, 11141.74, 11171.58, 11099.05, 11104.99, 0.09, 0.99, 0.37
184, 11033.96, 11064.27, 11126.72, 11099.85, 11111.03, 11140.82, 11068.25, 11074.26, 0.09, 0.98, 0.38
185, 11026.74, 11057.03, 11119.43, 11092.61, 11103.72, 11133.47, 11060.94, 11066.93, 0.09, 0.98, 0.38
186, 11014.36, 11044.76, 11107.01, 11080.16, 11091.29, 11121.09, 11048.51, 11054.50, 0.09, 0.98, 0.38
187, 10977.12, 11007.59, 11069.90, 11043.08, 11054.19, 11083.92, 11011.34, 11017.40, 0.09, 0.98, 0.38
188, 10942.25, 10972.65, 11035.01, 11008.21, 11019.32, 11049.00, 10976.49, 10982.46, 0.09, 0.98, 0.38
189, 10934.05, 10964.58, 11026.76, 11000.03, 11011.12, 11040.87, 10968.43, 10974.33, 0.09, 0.98, 0.37
190, 10925.71, 10956.24, 11018.34, 10991.63, 11002.71, 11032.51, 10959.95, 10965.99, 0.09, 0.98, 0.37
191, 10888.16, 10918.51, 10980.70, 10953.96, 10965.16, 10994.96, 10922.43, 10928.37, 0.09, 0.98, 0.37
192, 10847.90, 10878.30, 10940.58, 10913.89, 10925.08, 10954.72, 10882.30, 10888.21, 0.09, 0.98, 0.37
193, 10835.72, 10866.10, 10928.30, 10901.73, 10912.86, 10942.43, 10870.06, 10875.89, 0.09, 0.98, 0.37
194, 10830.85, 10861.18, 10923.34, 10896.79, 10907.90, 10937.49, 10865.14, 10870.97, 0.09, 0.99, 0.37
195, 10798.98, 10829.26, 10891.51, 10864.89, 10876.09, 10905.62, 10833.33, 10839.23, 0.09, 0.99, 0.37
196, 10759.75, 10790.08, 10852.38, 10825.75, 10836.93, 10866.52, 10794.10, 10800.09, 0.09, 0.99, 0.37
197, 10743.88, 10774.12, 10836.44, 10809.82, 10820.99, 10850.61, 10778.12, 10784.05, 0.09, 0.99, 0.37
198, 10739.57, 10769.81, 10832.08, 10805.46, 10816.70, 10846.25, 10773.76, 10779.75, 0.09, 0.99, 0.37
199, 10715.56, 10745.85, 10808.03, 10781.45, 10792.76, 10822.22, 10749.80, 10755.77, 0.09, 0.98, 0.38
200, 10675.89, 10706.13, 10768.42, 10741.82, 10753.00, 10782.50, 10710.13, 10716.16, 0.09, 0.98, 0.38
201, 10651.79, 10682.08, 10744.26, 10717.73, 10728.86, 10758.45, 10686.03, 10692.14, 0.09, 0.98, 0.38
202, 10645.98, 10676.29, 10738.40, 10711.87, 10722.98, 10752.60, 10680.13, 10686.19, 0.09, 0.98, 0.38
203, 10623.14, 10653.38, 10715.58, 10689.03, 10700.07, 10729.73, 10657.33, 10663.41, 0.09, 0.98, 0.38
204, 10578.99, 10609.21, 10671.48, 10644.97, 10656.04, 10685.65, 10613.26, 10619.34, 0.10, 0.98, 0.37
205, 10554.16, 10584.29, 10646.63, 10620.07, 10631.29, 10660.82, 10588.31, 10594.55, 0.10, 0.98, 0.37
206, 10551.25, 10581.41, 10643.63, 10617.10, 10628.32, 10657.80, 10585.43, 10591.55, 0.10, 0.98, 0.37
207, 10536.92, 10567.10, 10629.28, 10602.82, 10613.93, 10643.41, 10571.08, 10577.09, 0.10, 0.98, 0.37
208, 10497.14, 10527.25, 10589.56, 10563.08, 10574.23, 10603.73, 10531.38, 10537.42, 0.10, 0.98, 0.37
209, 10462.00, 10492.04, 10554.34, 10527.85, 10539.09, 10568.60, 10496.29, 10502.24, 0.10, 0.98, 0.37
210, 10455.86, 10485.90, 10548.15, 10521.66, 10532.90, 10562.41, 10490.05, 10496.04, 0.09, 0.99, 0.38
211, 10444.99, 10475.06, 10537.26, 10510.75, 10521.99, 10551.45, 10479.24, 10485.16, 0.09, 0.99, 0.38
212, 10404.60, 10434.71, 10496.89, 10470.45, 10481.72, 10511.20, 10438.91, 10444.77, 0.09, 0.99, 0.38
213, 10369.33, 10399.39, 10461.64, 10435.20, 10446.51, 10476.04, 10403.64, 10409.56, 0.09, 0.99, 0.38
214, 10361.37, 10391.44, 10453.62, 10427.22, 10438.51, 10467.95, 10395.64, 10401.63, 0.09, 0.99, 0.38
215, 10353.86, 10383.97, 10446.15, 10419.71, 10430.96, 10460.46, 10388.11, 10394.19, 0.10, 0.99, 0.38
216, 10318.93, 10349.06, 10411.31, 10384.82, 10396.02, 10425.57, 10353.28, 10359.32, 0.10, 0.99, 0.38
217, 10279.66, 10309.74, 10371.97, 10345.53, 10356.81, 10386.27, 10313.97, 10319.96, 0.10, 0.99, 0.38
218, 10266.94, 10297.00, 10359.25, 10332.79, 10344.12, 10373.51, 10301.20, 10307.22, 0.10, 0.99, 0.38
219, 10262.65, 10292.67, 10354.80, 10328.43, 10339.72, 10369.06, 10296.76, 10302.83, 0.10, 0.99, 0.38
220, 10232.87, 10262.87, 10324.92, 10298.70, 10309.94, 10339.27, 10267.03, 10273.08, 0.09, 0.99, 0.37
221, 10190.88, 10220.83, 10282.96, 10256.75, 10267.97, 10297.38, 10225.10, 10231.06, 0.09, 0.99, 0.37
222, 10171.25, 10201.20, 10263.43, 10237.12, 10248.43, 10277.78, 10205.54, 10211.44, 0.09, 0.99, 0.37
223, 10170.94, 10200.89, 10263.05, 10236.67, 10248.07, 10277.42, 10205.16, 10211.08, 0.09, 0.99, 0.37
224, 10147.11, 10177.06, 10239.13, 10212.91, 10224.25, 10253.55, 10181.29, 10187.32, 0.09, 0.99, 0.37
225, 10104.71, 10134.57, 10196.78, 10170.54, 10181.82, 10211.15, 10138.95, 10144.85, 0.09, 0.99, 0.37
226, 10078.60, 10108.53, 10170.69, 10144.43, 10155.69, 10185.09, 10112.91, 10118.77, 0.09, 0.99, 0.37
227, 10074.78, 10104.75, 10166.85, 10140.58, 10151.96, 10181.24, 10109.02, 10114.90, 0.09, 0.99, 0.37
228, 10056.54, 10086.49, 10148.50, 10122.34, 10133.81, 10163.00, 10090.74, 10096.68, 0.09, 0.99, 0.37
229, 10014.72, 10044.72, 10106.77, 10080.64, 10092.04, 10121.25, 10049.10, 10055.00, 0.09, 0.99, 0.37
230, 9988.01, 10017.96, 10080.03, 10053.90, 10065.17, 10094.45, 10022.37, 10028.18, 0.09, 0.98, 0.38
231, 9982.96, 10012.78, 10074.96, 10048.88, 10060.07, 10089.42, 10017.22, 10023.06, 0.09, 0.98, 0.38
232, 9967.58, 9997.44, 10059.54, 10033.41, 10044.72, 10073.95, 10001.87, 10007.68, 0.09, 0.98, 0.38
233, 9926.39, 9956.29, 10018.34, 9992.21, 10003.59, 10032.76, 9960.76, 9966.49, 0.09, 0.98, 0.38
234, 9895.63, 9925.58, 9987.63, 9961.48, 9972.92, 10002.09, 9930.01, 9935.86, 0.09, 0.98, 0.38
235, 9887.54, 9917.51, 9979.56, 9953.43, 9964.76, 9993.93, 9921.94, 9927.71, 0.09, 0.98, 0.37
236, 9877.15, 9907.01, 9968.97, 9942.88, 9954.19, 9983.43, 9911.41, 9917.11, 0.09, 0.98, 0.37
237, 9840.98, 9870.78, 9932.80, 9906.63, 9918.00, 9947.26, 9875.13, 9880.97, 0.09, 0.98, 0.37
238, 9804.57, 9834.41, 9896.57, 9870.40, 9881.77, 9910.96, 9838.81, 9844.67, 0.09, 0.98, 0.37
239, 9794.44, 9824.28, 9886.47, 9860.34, 9871.63, 9900.79, 9828.71, 9834.57, 0.09, 0.98, 0.37
240, 9789.19, 9818.96, 9881.15, 9855.04, 9866.26, 9895.52, 9823.41, 9829.29, 0.09, 0.98, 0.37
241, 9756.00, 9785.77, 9848.00, 9821.76, 9833.16, 9862.46, 9790.29, 9796.17, 0.09, 0.98, 0.37
242, 9715.99, 9745.76, 9807.90, 9781.79, 9793.15, 9822.38, 9750.30, 9756.18, 0.09, 0.98, 0.37
243, 9701.98, 9731.84, 9793.91, 9767.91, 9779.29, 9808.48, 9736.40, 9742.21, 0.09, 0.98, 0.37
244, 9695.83, 9725.60, 9787.61, 9761.63, 9772.99, 9802.20, 9730.07, 9735.91, 0.09, 0.98, 0.37
245, 9667.44, 9697.28, 9759.13, 9733.22, 9744.53, 9773.72, 9701.64, 9707.50, 0.09, 0.98, 0.37
246, 9625.13, 9654.95, 9716.88, 9690.96, 9702.24, 9731.37, 9659.44, 9665.32, 0.09, 0.98, 0.37
247, 9604.41, 9634.25, 9696.14, 9670.21, 9681.59, 9710.67, 9638.70, 9644.62, 0.09, 0.98, 0.37
248, 9602.44, 9632.10, 9694.08, 9668.11, 9679.49, 9708.64, 9636.57, 9642.52, 0.09, 0.98, 0.37
249, 9580.85, 9610.53, 9672.63, 9646.66, 9657.92, 9687.11, 9615.07, 9620.95, 0.09, 0.98, 0.37
250, 9536.91, 9566.61, 9628.59, 9602.71, 9614.00, 9643.21, 9571.17, 9577.07, 0.09, 0.98, 0.37
251, 9510.38, 9540.10, 9602.02, 9576.13, 9587.40, 9616.70, 9544.71, 9550.50, 0.09, 0.98, 0.38
252, 9506.75, 9536.48, 9598.33, 9572.45, 9583.67, 9612.99, 9541.02, 9546.76, 0.09, 0.98, 0.38
253, 9488.58, 9518.29, 9580.09, 9554.16, 9565.45, 9594.78, 9522.69, 9528.55, 0.09, 0.98, 0.38
254, 9448.98, 9478.59, 9540.53, 9514.67, 9525.96, 9555.17, 9483.06, 9489.12, 0.09, 0.98, 0.38
255, 9419.34, 9448.98, 9510.96, 9485.16, 9496.47, 9525.62, 9453.51, 9459.59, 0.09, 0.98, 0.38
0, 9415.05, 9444.71, 9506.64, 9480.85, 9492.16, 9521.26, 9449.22, 9455.26, 0.09, 0.99, 0.37
1, 9403.76, 9433.51, 9495.38, 9469.58, 9480.94, 9510.00, 9438.00, 9443.95, 0.09, 0.99, 0.37
2, 9365.25, 9394.91, 9456.82, 9431.00, 9442.45, 9471.44, 9399.42, 9405.48, 0.09, 0.99, 0.37
3, 9332.14, 9361.71, 9423.65, 9397.90, 9409.26, 9438.34, 9366.36, 9372.29, 0.09, 0.99, 0.37
4, 9326.06, 9355.68, 9417.53, 9391.78, 9403.07, 9432.30, 9360.17, 9366.12, 0.09, 0.99, 0.37
5, 9318.58, 9348.15, 9410.04, 9384.25, 9395.58, 9424.75, 9352.60, 9358.54, 0.09, 1.00, 0.38
6, 9282.59, 9312.21, 9374.17, 9348.30, 9359.66, 9388.74, 9316.79, 9322.67, 0.09, 1.00, 0.38
7, 9243.32, 9272.87, 9334.85, 9309.10, 9320.43, 9349.53, 9277.58, 9283.46, 0.09, 1.00, 0.38
8, 9232.57, 9262.09, 9324.10, 9298.35, 9309.66, 9338.74, 9266.83, 9272.71, 0.09, 1.00, 0.38
9, 9226.06, 9255.59, 9317.50, 9291.64, 9303.00, 9332.14, 9260.28, 9266.09, 0.09, 1.00, 0.38
10, 9193.96, 9223.47, 9285.34, 9259.61, 9270.90, 9300.02, 9228.16, 9233.97, 0.09, 1.00, 0.38
11, 9154.42, 9183.93, 9245.84, 9220.14, 9231.40, 9260.57, 9188.76, 9194.52, 0.10, 0.99, 0.38
12, 9141.17, 9170.72, 9232.59, 9206.86, 9218.19, 9247.30, 9175.41, 9181.27, 0.10, 0.99, 0.38
13, 9137.26, 9166.70, 9228.54, 9202.82, 9214.24, 9243.32, 9171.34, 9177.29, 0.10, 0.99, 0.38
14, 9109.21, 9138.60, 9200.51, 9174.72, 9186.10, 9215.27, 9143.29, 9149.15, 0.10, 0.99, 0.38
15, 9065.49, 9094.88, 9156.82, 9131.07, 9142.51, 9171.48, 9099.60, 9105.54, 0.10, 0.99, 0.38
16, 9044.41, 9073.87, 9135.78, 9110.06, 9121.55, 9150.42, 9078.58, 9084.53, 0.09, 0.99, 0.38
17, 9040.81, 9070.29, 9132.07, 9106.37, 9117.92, 9146.85, 9074.94, 9080.82, 0.09, 0.99, 0.38
18, 9021.34, 9050.78, 9112.54, 9086.92, 9098.37, 9127.40, 9055.43, 9061.38, 0.09, 0.99, 0.38
19, 8981.20, 9010.59, 9072.42, 9046.80, 9058.25, 9087.28, 9015.33, 9021.19, 0.09, 0.99, 0.38
20, 8954.85, 8984.31, 9046.24, 9020.58, 9032.00, 9061.02, 8989.07, 8995.06, 0.09, 0.99, 0.38
21, 8951.23, 8980.68, 9042.58, 9016.98, 9028.34, 9057.35, 8985.42, 8991.37, 0.09, 0.99, 0.38
22, 8936.47, 8965.84, 9027.74, 9002.10, 9013.50, 9042.40, 8970.49, 8976.42, 0.09, 0.99, 0.38
23, 8893.74, 8923.13, 8985.02, 8959.50, 8970.85, 8999.68, 8927.82, 8933.75, 0.09, 0.99, 0.38
24, 8862.29, 8891.59, 8953.53, 8928.05, 8939.40, 8968.28, 8896.42, 8902.39, 0.09, 0.99, 0.38
25, 8857.30, 8886.58, 8948.52, 8923.02, 8934.39, 8963.34, 8891.48, 8897.36, 0.09, 0.99, 0.38
26, 8845.43, 8874.74, 8936.58, 8911.15, 8922.41, 8951.38, 8879.54, 8885.44, 0.09, 0.98, 0.38
27, 8808.84, 8838.13, 8900.04, 8874.56, 8885.82, 8914.72, 8842.86, 8848.79, 0.09, 0.98, 0.38
28, 8777.02, 8806.36, 8868.26, 8842.77, 8854.15, 8882.99, 8811.15, 8817.05, 0.09, 0.98, 0.38
29, 8769.57, 8798.96, 8860.77, 8835.22, 8846.73, 8875.52, 8803.70, 8809.56, 0.09, 0.98, 0.38
30, 8763.00, 8792.35, 8854.06, 8828.56, 8840.03, 8868.86, 8797.02, 8802.94, 0.09, 0.98, 0.38
31, 8727.15, 8756.47, 8818.14, 8792.80, 8804.08, 8832.98, 8761.17, 8767.11, 0.09, 0.98, 0.38
32, 8687.09, 8716.31, 8778.16, 8752.88, 8764.25, 8793.11, 8721.20, 8727.15, 0.09, 0.98, 0.38
33, 8674.58, 8703.84, 8765.66, 8740.31, 8751.67, 8780.57, 8708.64, 8714.70, 0.09, 0.98, 0.38
34, 8671.11, 8700.33, 8762.06, 8736.72, 8748.00, 8776.99, 8705.04, 8711.06, 0.09, 0.98, 0.38
35, 8644.02, 8673.28, 8735.02, 8709.76, 8721.00, 8749.88, 8677.97, 8683.92, 0.09, 0.98, 0.38
36, 8604.80, 8633.96, 8695.75, 8670.53, 8681.80, 8710.70, 8638.75, 8644.72, 0.09, 0.98, 0.37
37, 8587.38, 8616.55, 8678.31, 8653.03, 8664.38, 8693.24, 8621.29, 8627.39, 0.09, 0.98, 0.37
38, 8585.30, 8614.52, 8676.30, 8650.93, 8662.28, 8691.16, 8619.23, 8625.25, 0.09, 0.98, 0.37
39, 8559.78, 8588.97, 8650.71, 8625.34, 8636.74, 8665.68, 8593.71, 8599.72, 0.09, 0.98, 0.37
40, 8517.89, 8546.99, 8608.73, 8583.43, 8594.80, 8623.71, 8551.75, 8557.83, 0.09, 0.98, 0.37
41, 8495.76, 8524.91, 8586.67, 8561.41, 8572.77, 8601.60, 8529.67, 8535.75, 0.09, 0.98, 0.37
42, 8494.56, 8523.70, 8585.37, 8560.09, 8571.49, 8600.35, 8528.38, 8534.48, 0.09, 0.98, 0.37
43, 8475.36, 8504.57, 8566.31, 8541.00, 8552.36, 8581.19, 8509.13, 8515.30, 0.09, 0.98, 0.37
44, 8434.92, 8464.09, 8525.89, 8500.70, 8511.97, 8540.80, 8468.76, 8474.89, 0.09, 0.98, 0.37
45, 8408.55, 8437.63, 8499.38, 8474.13, 8485.48, 8514.34, 8442.37, 8448.49, 0.09, 0.98, 0.37
46, 8404.61, 8433.63, 8495.36, 8470.15, 8481.57, 8510.36, 8438.36, 8444.51, 0.09, 0.98, 0.37
47, 8390.93, 8419.90, 8481.66, 8456.47, 8467.89, 8496.55, 8424.73, 8430.81, 0.09, 0.99, 0.37
48, 8350.81, 8379.92, 8441.67, 8416.46, 8427.88, 8456.60, 8384.81, 8390.82, 0.09, 0.99, 0.37
49, 8319.30, 8348.47, 8410.20, 8385.01, 8396.41, 8425.11, 8353.43, 8359.40, 0.09, 0.99, 0.37
50, 8312.77, 8341.80, 8403.58, 8378.39, 8389.68, 8418.45, 8346.63, 8352.69, 0.09, 0.99, 0.37
51, 8305.75, 8334.65, 8396.39, 8371.15, 8382.60, 8411.27, 8339.41, 8345.58, 0.09, 0.99, 0.37
52, 8268.60, 8297.62, 8359.35, 8334.05, 8345.60, 8374.17, 8302.40, 8308.55, 0.09, 0.99, 0.38
53, 8231.83, 8260.94, 8322.65, 8297.41, 8308.84, 8337.54, 8265.70, 8271.84, 0.09, 0.99, 0.38
54, 8222.63, 8251.62, 8313.33, 8288.21, 8299.56, 8328.26, 8256.38, 8262.46, 0.09, 0.99, 0.38
55, 8216.50, 8245.42, 8307.09, 8282.06, 8293.30, 8322.09, 8250.21, 8256.20, 0.09, 0.99, 0.38
56, 8183.80, 8212.68, 8274.46, 8249.38, 8260.65, 8289.39, 8217.46, 8223.54, 0.09, 0.99, 0.38
57, 8143.92, 8172.87, 8234.63, 8209.59, 8220.73, 8249.56, 8177.68, 8183.78, 0.09, 0.98, 0.38
58, 8130.83, 8159.82, 8221.55, 8196.54, 8207.65, 8236.51, 8164.62, 8170.72, 0.09, 0.98, 0.38
59, 8128.77, 8157.76, 8219.36, 8194.35, 8205.55, 8234.34, 8162.41, 8168.49, 0.09, 0.98, 0.38
60, 8101.57, 8130.56, 8192.14, 8167.13, 8178.41, 8207.14, 8135.16, 8141.31, 0.09, 0.98, 0.38
61, 8061.00, 8089.95, 8151.64, 8126.51, 8137.87, 8166.61, 8094.68, 8100.81, 0.09, 0.98, 0.38
62, 8044.26, 8073.16, 8134.87, 8109.79, 8121.22, 8149.96, 8078.01, 8084.18, 0.09, 0.98, 0.38
63, 8040.59, 8069.56, 8131.18, 8106.22, 8117.46, 8146.23, 8074.19, 8080.36, 0.09, 0.98, 0.38
64, 8020.54, 8049.49, 8111.13, 8086.12, 8097.34, 8126.16, 8054.16, 8060.28, 0.09, 0.98, 0.38
65, 7981.43, 8010.37, 8072.04, 8046.99, 8058.34, 8087.08, 8015.13, 8021.12, 0.09, 0.98, 0.38
66, 7958.74, 7987.64, 8049.44, 8024.37, 8035.70, 8064.42, 7992.45, 7998.48, 0.09, 0.98, 0.38
67, 7953.58, 7982.46, 8044.15, 8019.09, 8030.42, 8059.17, 7987.04, 7993.30, 0.09, 0.98, 0.38
68, 7934.15, 7963.10, 8024.75, 7999.64, 8010.98, 8039.68, 7967.59, 7973.90, 0.09, 0.98, 0.38
69, 7893.38, 7922.31, 7983.91, 7958.85, 7970.18, 7998.93, 7926.80, 7933.10, 0.09, 0.98, 0.38
70, 7865.18, 7894.12, 7955.72, 7930.71, 7942.07, 7970.83, 7898.64, 7905.01, 0.09, 0.98, 0.38
71, 7863.77, 7892.69, 7954.23, 7929.35, 7940.59, 7969.34, 7897.23, 7903.44, 0.09, 0.98, 0.38
72, 7853.31, 7882.25, 7943.90, 7918.87, 7930.15, 7958.90, 7886.81, 7892.96, 0.09, 0.98, 0.38
73, 7814.35, 7843.29, 7904.92, 7879.86, 7891.28, 7919.96, 7847.85, 7854.04, 0.10, 0.99, 0.38
74, 7782.41, 7811.40, 7873.00, 7848.01, 7859.36, 7888.13, 7815.96, 7822.31, 0.10, 0.99, 0.38
75, 7778.03, 7806.88, 7868.55, 7843.56, 7854.85, 7883.64, 7811.46, 7817.84, 0.10, 0.99, 0.38
76, 7770.20, 7799.06, 7860.64, 7835.60, 7846.96, 7875.66, 7803.53, 7809.86, 0.10, 0.99, 0.38
77, 7733.77, 7762.63, 7824.25, 7799.22, 7810.57, 7839.29, 7767.14, 7773.40, 0.10, 0.99, 0.38
78, 7697.36, 7726.30, 7787.88, 7762.94, 7774.36, 7802.97, 7730.84, 7737.15, 0.09, 0.98, 0.38
79, 7687.61, 7716.40, 7777.98, 7753.06, 7764.46, 7793.14, 7720.99, 7727.24, 0.09, 0.98, 0.38
80, 7682.32, 7711.13, 7772.71, 7747.85, 7759.14, 7787.82, 7715.67, 7721.83, 0.09, 0.98, 0.38
81, 7650.47, 7679.21, 7740.92, 7716.02, 7727.27, 7755.97, 7683.81, 7690.03, 0.09, 0.98, 0.38
82, 7614.32, 7643.04, 7704.89, 7679.81, 7691.15, 7719.89, 7647.63, 7653.93, 0.09, 0.98, 0.38
83, 7602.63, 7631.38, 7693.16, 7668.08, 7679.43, 7708.09, 7635.78, 7642.20, 0.09, 0.98, 0.38
84, 7597.63, 7626.37, 7687.95, 7662.92, 7674.36, 7702.97, 7630.57, 7637.03, 0.09, 0.98, 0.38
85, 7573.04, 7601.76, 7663.30, 7638.40, 7649.73, 7678.45, 7606.01, 7612.45, 0.09, 0.98, 0.38
86, 7533.28, 7562.06, 7623.71, 7598.79, 7610.17, 7638.86, 7566.36, 7572.86, 0.09, 0.98, 0.38
87, 7512.35, 7541.08, 7602.79, 7577.89, 7589.36, 7617.99, 7545.46, 7551.94, 0.09, 0.98, 0.38
88, 7508.87, 7537.54, 7599.19, 7574.22, 7585.69, 7614.37, 7541.81, 7548.25, 0.09, 0.99, 0.39
89, 7488.68, 7517.38, 7578.96, 7554.02, 7565.46, 7594.09, 7521.65, 7528.04, 0.09, 0.99, 0.39
90, 7449.14, 7477.82, 7539.49, 7514.63, 7526.12, 7554.69, 7482.20, 7488.68, 0.09, 0.99, 0.39
91, 7425.12, 7453.73, 7515.51, 7490.58, 7502.12, 7530.73, 7458.20, 7464.72, 0.09, 0.99, 0.39
92, 7424.33, 7453.01, 7514.68, 7489.71, 7501.11, 7529.81, 7457.28, 7463.78, 0.09, 0.99, 0.39
93, 7408.71, 7437.43, 7499.05, 7474.07, 7485.46, 7514.16, 7441.57, 7448.07, 0.08, 0.99, 0.38
94, 7366.98, 7395.72, 7457.35, 7432.40, 7443.89, 7472.50, 7399.86, 7406.45, 0.08, 0.99, 0.38
95, 7340.78, 7369.50, 7431.24, 7406.27, 7417.72, 7446.39, 7373.75, 7380.32, 0.08, 0.99, 0.38
96, 7338.28, 7366.98, 7428.65, 7403.77, 7415.15, 7443.80, 7371.20, 7377.82, 0.08, 0.99, 0.38
97, 7328.22, 7356.81, 7418.50, 7393.49, 7404.91, 7433.59, 7360.94, 7367.56, 0.08, 0.99, 0.38
98, 7292.35, 7320.87, 7382.58, 7357.57, 7369.12, 7397.78, 7325.05, 7331.62, 0.08, 0.99, 0.38
99, 7257.81, 7286.36, 7348.07, 7323.08, 7334.61, 7363.25, 7290.60, 7297.13, 0.08, 0.99, 0.38
100, 7252.36, 7280.88, 7342.50, 7317.63, 7329.09, 7357.72, 7285.01, 7291.59, 0.08, 0.99, 0.38
101, 7248.09, 7276.61, 7338.30, 7313.20, 7324.80, 7353.46, 7280.63, 7287.21, 0.08, 0.99, 0.38
102, 7214.90, 7243.42, 7305.24, 7280.07, 7291.65, 7320.38, 7247.44, 7253.99, 0.08, 0.99, 0.38
103, 7180.59, 7209.06, 7270.93, 7245.90, 7257.41, 7286.06, 7213.20, 7219.77, 0.08, 0.99, 0.38
104, 7170.01, 7198.45, 7260.16, 7235.17, 7246.66, 7275.38, 7202.36, 7209.13, 0.08, 0.99, 0.38
105, 7164.20, 7192.63, 7254.21, 7229.36, 7240.74, 7269.48, 7196.55, 7203.10, 0.08, 0.99, 0.38
106, 7136.87, 7165.39, 7226.99, 7202.04, 7213.58, 7242.32, 7169.34, 7175.87, 0.08, 0.99, 0.38
107, 7100.34, 7128.82, 7190.60, 7165.63, 7177.17, 7205.96, 7132.89, 7139.50, 0.08, 0.99, 0.38
108, 7085.52, 7114.00, 7175.63, 7150.75, 7162.24, 7191.07, 7117.98, 7124.46, 0.08, 0.99, 0.38
109, 7082.49, 7110.94, 7172.47, 7147.62, 7159.06, 7187.85, 7114.81, 7121.29, 0.09, 0.99, 0.38
110, 7059.64, 7088.10, 7149.63, 7124.75, 7136.38, 7165.07, 7091.98, 7098.42, 0.09, 0.99, 0.38
111, 7019.81, 7048.33, 7109.96, 7085.08, 7096.81, 7125.45, 7052.40, 7058.86, 0.09, 0.99, 0.38
112, 7001.37, 7029.82, 7091.52, 7066.57, 7078.35, 7106.98, 7033.89, 7040.46, 0.09, 0.99, 0.38
113, 7001.46, 7029.89, 7091.47, 7066.39, 7078.10, 7106.76, 7033.65, 7040.20, 0.09, 0.99, 0.38
114, 6980.63, 7009.04, 7070.59, 7045.58, 7057.29, 7085.86, 7012.81, 7019.32, 0.09, 0.99, 0.38
115, 6941.49, 6968.89, 7031.52, 7006.58, 7018.31, 7046.92, 6973.83, 6980.34, 0.09, 0.99, 0.38
116, 6915.38, 6941.09, 7005.73, 6980.76, 6992.56, 7021.15, 6948.04, 6954.48, 0.09, 0.99, 0.38
117, 6914.44, 6942.76, 7004.46, 6979.44, 6991.31, 7019.88, 6946.70, 6953.14, 0.09, 0.99, 0.38
118, 6899.71, 6928.28, 6989.70, 6964.67, 6976.56, 7005.22, 6931.86, 6938.34, 0.09, 0.99, 0.38
119, 6859.10, 6774.08, 6951.93, 6926.92, 6938.61, 6967.28, 6894.08, 6900.56, 0.08, 0.99, 0.38
120, 6823.00, 6429.37, 6922.42, 6897.37, 6908.92, 6937.62, 6864.51, 6871.13, 0.08, 0.99, 0.38
121, 6826.51, 6773.72, 6919.41, 6894.33, 6906.11, 6934.83, 6861.49, 6868.11, 0.08, 0.99, 0.38
122, 6821.55, 6849.96, 6911.52, 6886.53, 6898.35, 6926.98, 6853.67, 6860.17, 0.08, 0.99, 0.38
123, 6784.74, 6548.14, 6878.28, 6853.22, 6864.96, 6893.59, 6820.37, 6826.98, 0.08, 0.99, 0.38
124, 6740.37, 5619.41, 6842.99, 6817.93, 6829.49, 6858.14, 6785.14, 6791.67, 0.08, 0.99, 0.37
125, 6739.70, 6322.84, 6837.26, 6812.12, 6823.88, 6852.51, 6779.35, 6785.86, 0.08, 0.99, 0.37
126, 6741.84, 6760.35, 6832.10, 6807.02, 6818.89, 6847.64, 6774.23, 6780.78, 0.08, 0.99, 0.37
127, 6707.62, 6362.74, 6801.41, 6776.33, 6788.18, 6816.86, 6743.54, 6750.03, 0.08, 0.99, 0.37
128, 6660.28, 4800.69, 6765.67, 6740.48, 6752.08, 6780.76, 6707.71, 6714.17, 0.08, 0.99, 0.37
129, 6653.62, 5460.04, 6756.17, 6731.00, 6742.65, 6771.39, 6698.21, 6704.63, 0.08, 0.99, 0.37
130, 6661.04, 6591.84, 6753.09, 6727.92, 6739.92, 6768.64, 6695.15, 6701.52, 0.09, 0.99, 0.38
131, 6627.52, 6212.13, 6726.22, 6700.99, 6713.01, 6741.76, 6668.37, 6674.81, 0.09, 0.99, 0.38
132, 6362.78, 4082.72, 6689.56, 6664.31, 6675.88, 6704.50, 6631.63, 6638.04, 0.09, 0.99, 0.38
133, 6358.85, 4294.31, 6673.67, 6648.44, 6660.06, 6688.67, 6615.71, 6622.22, 0.09, 0.99, 0.38
134, 6574.79, 6187.03, 6674.77, 6649.49, 6661.58, 6690.35, 6616.85, 6623.29, 0.09, 0.99, 0.38
135, 6547.70, 6045.27, 6655.10, 6629.77, 6641.89, 6670.63, 6597.18, 6603.62, 0.09, 0.99, 0.38
136, 5952.58, 3465.77, 6616.03, 6590.66, 6602.39, 6630.96, 6558.09, 6564.66, 0.09, 0.99, 0.38
137, 5749.85, 3034.83, 6596.96, 6571.64, 6583.17, 6611.87, 6539.00, 6545.60, 0.09, 0.99, 0.38
138, 6440.57, 5351.99, 6598.44, 6572.96, 6584.98, 6613.68, 6540.41, 6546.89, 0.09, 0.99, 0.38
139, 6470.79, 5740.11, 6583.44, 6550.16, 6570.70, 6599.49, 6526.06, 6532.50, 0.09, 0.99, 0.38
140, 5639.48, 2918.87, 6540.77, 6335.24, 6533.08, 6561.76, 6488.60, 6495.08, 0.09, 0.98, 0.37
141, 4892.44, 1821.18, 6514.37, 6087.81, 6509.59, 6538.09, 6465.20, 6471.57, 0.09, 0.98, 0.37
142, 6139.93, 4010.71, 6515.94, 6165.68, 6511.60, 6540.21, 6466.72, 6473.18, 0.09, 0.98, 0.37
143, 6397.16, 4956.79, 6504.27, 6037.16, 6500.22, 6528.81, 6455.09, 6461.58, 0.09, 0.98, 0.37
144, 5445.87, 2401.56, 6468.13, 5539.46, 6464.21, 6492.76, 6419.44, 6425.93, 0.09, 0.98, 0.37
145, 3979.88, 699.56, 6441.12, 5235.25, 6437.46, 6466.05, 6393.07, 6399.48, 0.09, 0.98, 0.38
146, 5537.29, 2545.53, 6441.28, 5303.58, 6437.82, 6466.40, 6393.14, 6399.57, 0.09, 0.98, 0.38
147, 6313.47, 4054.81, 6435.67, 5214.30, 6432.76, 6461.35, 6387.77, 6394.16, 0.09, 0.98, 0.38
148, 5345.89, 1927.06, 6401.14, 4721.40, 6399.19, 6427.87, 6354.42, 6360.81, 0.09, 0.98, 0.38
149, 3162.82, -302.33, 6368.95, 4337.33, 6367.56, 6396.26, 6323.08, 6329.52, 0.09, 0.98, 0.38
150, 4607.32, 1070.78, 6365.20, 4360.45, 6363.97, 6392.67, 6319.29, 6325.79, 0.09, 0.99, 0.37
151, 6152.79, 3037.65, 6364.75, 4328.28, 6363.99, 6392.55, 6318.82, 6325.25, 0.09, 0.99, 0.37
152, 5305.81, 1460.33, 6335.02, 3881.09, 6337.48, 6366.11, 6292.49, 6298.97, 0.09, 0.99, 0.37
153, 2513.86, -1157.55, 6200.80, 3435.60, 6306.21, 6334.89, 6261.39, 6267.83, 0.09, 0.99, 0.37
154, 3437.23, -360.67, 6101.62, 3409.33, 6300.46, 6329.10, 6255.34, 6261.80, 0.09, 0.99, 0.37
155, 5812.48, 1917.91, 6264.48, 3431.08, 6301.96, 6330.55, 6256.72, 6263.09, 0.09, 0.99, 0.37
156, 5270.41, 981.69, 6243.49, 3039.81, 6278.29, 6306.95, 6233.10, 6239.49, 0.09, 0.99, 0.37
157, 2038.39, -1854.01, 5751.60, 2551.59, 6245.50, 6274.11, 6200.24, 6206.77, 0.09, 0.99, 0.37
158, 2189.26, -1697.37, 5444.39, 2472.91, 6237.90, 6266.51, 6192.55, 6199.06, 0.09, 0.99, 0.37
159, 5166.99, 731.77, 5882.15, 2548.75, 6242.06, 6270.76, 6196.46, 6202.97, 0.09, 0.99, 0.37
160, 5219.60, 498.78, 5983.63, 2240.00, 6222.05, 6250.73, 6176.39, 6182.89, 0.09, 0.99, 0.37
161, 1755.68, -2366.13, 5209.99, 1734.61, 6187.66, 6216.33, 6142.19, 6148.65, 0.09, 0.98, 0.38
162, 1031.44, -2885.59, 4744.90, 1593.43, 6176.17, 6204.87, 6130.70, 6137.19, 0.09, 0.98, 0.38
163, 4169.09, -487.92, 5183.59, 1704.52, 6185.71, 6214.43, 6140.16, 6146.64, 0.09, 0.98, 0.38
164, 5054.49, -3.49, 5385.27, 1494.46, 6174.36, 6202.97, 6128.67, 6135.17, 0.09, 0.98, 0.38
165, 1629.55, -2710.62, 4675.96, 1000.49, 6143.53, 6172.23, 6097.91, 6104.40, 0.09, 0.98, 0.38
166, 47.50, -3893.65, 4082.64, 789.42, 6125.70, 6154.46, 6080.10, 6086.51, 0.09, 0.98, 0.37
167, 2911.61, -1707.58, 4419.36, 909.27, 6134.70, 6163.34, 6089.04, 6095.43, 0.09, 0.98, 0.37
168, 4585.66, -545.14, 4769.59, 805.42, 6130.77, 6159.38, 6085.08, 6091.43, 0.09, 0.98, 0.37
169, 1600.52, -2922.02, 4188.67, 344.87, 6102.76, 6131.42, 6057.05, 6063.42, 0.09, 0.98, 0.37
170, -739.57, -4711.66, 3478.91, 66.47, 6083.05, 6111.84, 6037.30, 6043.58, 0.09, 0.98, 0.37
171, 1608.66, -2896.43, 3674.63, 169.72, 6090.76, 6119.59, 6045.12, 6051.42, 0.09, 0.98, 0.37
172, 3983.30, -1160.32, 4126.15, 154.32, 6092.71, 6121.54, 6047.00, 6053.28, 0.09, 0.98, 0.37
173, 1628.66, -3057.50, 3703.19, -256.29, 6067.34, 6095.99, 6021.47, 6027.84, 0.09, 0.98, 0.37
174, -1333.44, -5342.65, 2914.94, -596.50, 6042.35, 6070.91, 5996.39, 6002.72, 0.09, 0.98, 0.37
175, 330.60, -4044.48, 2948.44, -532.24, 6045.12, 6073.89, 5999.23, 6005.58, 0.09, 0.98, 0.37
176, 3234.39, -1865.41, 3463.58, -472.20, 6053.81, 6082.56, 6007.99, 6014.32, 0.09, 0.98, 0.38
177, 1658.28, -3158.66, 3216.19, -818.74, 6037.41, 6066.08, 5991.47, 5997.84, 0.09, 0.98, 0.38
178, -1731.77, -5740.38, 2392.75, -1208.58, 6011.75, 6040.47, 5965.57, 5971.92, 0.09, 0.98, 0.38
179, -879.81, -5167.43, 2249.77, -1201.34, 6008.89, 6037.65, 5962.66, 5969.01, 0.09, 0.98, 0.38
180, 2336.34, -2677.07, 2775.17, -1087.35, 6015.88, 6044.67, 5969.93, 5976.27, 0.09, 0.98, 0.38
181, 1634.47, -3273.79, 2708.47, -1355.50, 6004.08, 6032.94, 5958.17, 5964.45, 0.09, 0.98, 0.38
182, -1960.05, -5778.73, 1897.19, -1782.86, 5974.73, 6003.54, 5928.38, 5934.70, 0.09, 0.98, 0.38
183, -1996.44, -5934.59, 1578.19, -1844.78, 5971.02, 5999.77, 5924.62, 5930.95, 0.09, 0.98, 0.38
184, 1301.34, -3604.69, 2071.09, -1693.64, 5982.56, 6011.35, 5936.49, 5942.79, 0.09, 0.98, 0.38
185, 1515.43, -3461.30, 2181.62, -1876.27, 5974.60, 6003.34, 5928.42, 5934.79, 0.09, 0.98, 0.38
186, -2037.74, -5732.80, 1428.12, -2316.74, 5948.42, 5977.21, 5902.04, 5908.42, 0.09, 0.98, 0.38
187, -2973.32, -6306.97, 943.36, -2455.09, 5937.49, 5966.19, 5890.87, 5897.26, 0.09, 0.98, 0.37
188, 161.36, -4561.59, 1354.20, -2297.45, 5949.14, 5977.73, 5902.85, 5909.26, 0.09, 0.98, 0.37
189, 1267.41, -3747.20, 1621.40, -2396.15, 5949.12, 5977.79, 5903.07, 5909.44, 0.09, 0.98, 0.37
190, -2010.47, -5686.44, 967.45, -2826.06, 5922.00, 5950.82, 5875.65, 5882.06, 0.09, 0.98, 0.37
191, -3798.99, -6437.06, 341.13, -3038.70, 5902.96, 5931.73, 5856.29, 5862.64, 0.09, 0.98, 0.37
192, -1042.42, -5373.98, 637.38, -2894.28, 5911.05, 5939.75, 5864.74, 5870.98, 0.09, 0.97, 0.38
193, 869.15, -4152.10, 1034.39, -2912.01, 5915.19, 5943.82, 5868.99, 5875.36, 0.09, 0.97, 0.38
194, -1919.50, -5663.53, 515.43, -3312.53, 5895.14, 5923.84, 5848.67, 5855.06, 0.09, 0.97, 0.38
195, -4456.20, -6476.78, -219.70, -3596.98, 5877.37, 5906.00, 5830.54, 5836.91, 0.09, 0.97, 0.38
196, -2272.93, -5957.23, -72.82, -3488.46, 5882.67, 5911.39, 5836.11, 5842.50, 0.09, 0.97, 0.38
197, 301.26, -4677.15, 412.21, -3436.58, 5887.31, 5915.97, 5841.02, 5847.40, 0.09, 0.97, 0.37
198, -1817.00, -5680.96, 52.73, -3790.12, 5867.65, 5896.35, 5821.13, 5827.46, 0.09, 0.97, 0.37
199, -4928.78, -6476.86, -750.10, -4138.45, 5842.34, 5871.00, 5795.43, 5801.82, 0.09, 0.97, 0.37
200, -3486.40, -6281.87, -768.30, -4078.95, 5842.86, 5871.56, 5796.12, 5802.49, 0.09, 0.97, 0.37
201, -438.12, -5269.11, -239.88, -3970.09, 5853.27, 5882.02, 5807.01, 5813.38, 0.09, 0.97, 0.37
202, -1742.90, -5750.14, -424.24, -4263.73, 5839.97, 5868.81, 5793.64, 5799.96, 0.09, 0.98, 0.38
203, -5162.52, -6475.10, -1248.43, -4662.17, 5811.99, 5840.71, 5765.21, 5771.56, 0.09, 0.98, 0.38
204, -4677.48, -6433.59, -1447.77, -4670.26, 5809.75, 5838.52, 5762.91, 5769.28, 0.09, 0.98, 0.38
205, -1353.53, -5817.29, -924.69, -4522.96, 5821.27, 5850.17, 5775.00, 5781.41, 0.09, 0.98, 0.38
206, -1757.43, -5883.47, -931.37, -4745.66, 5809.22, 5838.03, 5762.95, 5769.28, 0.09, 0.98, 0.38
207, -5102.34, -6466.38, -1728.89, -5174.79, 5781.79, 5810.54, 5734.94, 5741.27, 0.09, 0.98, 0.38
208, -5507.56, -6492.44, -2099.25, -5257.42, 5773.97, 5802.76, 5727.05, 5733.38, 0.09, 0.98, 0.38
209, -2413.41, -6196.15, -1626.96, -5092.06, 5786.13, 5814.98, 5739.77, 5746.14, 0.09, 0.98, 0.38
210, -1888.43, -6084.52, -1464.46, -5232.63, 5781.01, 5809.78, 5734.76, 5741.18, 0.09, 0.98, 0.38
211, -4958.18, -6453.33, -2192.19, -5655.75, 5756.00, 5784.70, 5709.22, 5715.63, 0.09, 0.98, 0.38
212, -5971.76, -6527.92, -2725.93, -5819.88, 5742.03, 5770.88, 5695.02, 5701.48, 0.09, 0.98, 0.38
213, -3554.69, -6338.62, -2346.71, -5668.07, 5751.66, 5780.50, 5705.06, 5711.38, 0.09, 0.98, 0.38
214, -2174.76, -6256.68, -2035.57, -5714.33, 5752.67, 5781.41, 5706.20, 5712.50, 0.09, 0.98, 0.38
215, -4817.65, -6439.87, -2651.95, -6031.71, 5728.82, 5757.59, 5682.08, 5688.43, 0.09, 0.98, 0.38
216, -6151.09, -6552.44, -3315.93, -6200.69, 5710.89, 5739.66, 5664.16, 5670.59, 0.09, 0.98, 0.38
217, -4594.42, -6388.71, -3064.13, -6192.13, 5716.46, 5745.31, 5670.03, 5676.38, 0.09, 0.98, 0.38
218, -2634.33, -6260.90, -2637.35, -6171.00, 5722.63, 5751.46, 5676.31, 5682.69, 0.09, 0.98, 0.37
219, -4708.44, -6412.58, -3111.72, -6219.02, 5701.95, 5730.74, 5655.55, 5661.88, 0.09, 0.98, 0.37
220, -6191.03, -6567.12, -3874.14, -6230.15, 5681.39, 5710.27, 5634.72, 5640.98, 0.09, 0.98, 0.37
221, -5381.16, -6442.42, -3775.86, -6225.45, 5684.47, 5713.37, 5638.00, 5644.28, 0.09, 0.98, 0.37
222, -3263.44, -6274.27, -3273.50, -6226.19, 5691.51, 5720.39, 5645.45, 5651.66, 0.09, 0.98, 0.37
223, -4650.64, -6380.82, -3581.44, -6232.40, 5670.59, 5699.38, 5624.28, 5630.47, 0.09, 0.98, 0.37
224, -6173.86, -6564.44, -4398.20, -6237.90, 5645.98, 5674.77, 5599.36, 5605.68, 0.09, 0.98, 0.37
225, -5875.54, -6486.88, -4470.93, -6235.00, 5646.34, 5675.17, 5599.78, 5606.13, 0.09, 0.98, 0.37
226, -4008.16, -6294.94, -3934.20, -6232.90, 5654.86, 5683.67, 5608.63, 5614.96, 0.09, 0.98, 0.37
227, -4664.63, -6353.42, -4064.35, -6240.61, 5640.75, 5669.52, 5594.40, 5600.72, 0.09, 0.98, 0.37
228, -6144.49, -6553.11, -4893.29, -6246.33, 5612.84, 5641.67, 5566.28, 5572.63, 0.09, 0.99, 0.37
229, -6128.09, -6525.35, -5149.31, -6244.14, 5608.34, 5637.20, 5561.85, 5568.07, 0.09, 0.99, 0.37
230, -4770.06, -6327.04, -4626.41, -6242.91, 5620.30, 5649.05, 5573.99, 5580.20, 0.09, 0.99, 0.37
231, -4781.08, -6332.58, -4572.94, -6250.17, 5612.01, 5640.75, 5565.70, 5571.91, 0.09, 0.99, 0.37
232, -6117.16, -6538.13, -5334.29, -6258.40, 5585.57, 5614.40, 5538.96, 5545.20, 0.09, 0.99, 0.37
233, -6243.56, -6563.63, -5769.37, -6258.94, 5578.01, 5606.85, 5531.36, 5537.60, 0.09, 0.99, 0.37
234, -5415.69, -6369.96, -5342.89, -6256.05, 5588.52, 5617.33, 5542.03, 5548.35, 0.09, 0.99, 0.37
235, -5010.43, -6321.99, -5107.26, -6262.06, 5585.12, 5613.93, 5538.83, 5545.11, 0.09, 0.99, 0.37
236, -6090.45, -6518.15, -5668.33, -6272.93, 5559.97, 5588.85, 5513.53, 5519.79, 0.09, 0.99, 0.37
237, -6290.16, -6591.28, -6046.01, -6278.52, 5545.74, 5574.48, 5499.45, 5505.70, 0.09, 0.99, 0.37
238, -5863.67, -6415.60, -5962.42, -6272.50, 5554.25, 5583.00, 5507.96, 5514.18, 0.09, 0.99, 0.38
239, -5347.16, -6319.64, -5684.88, -6273.15, 5556.60, 5585.48, 5510.31, 5516.57, 0.09, 0.99, 0.38
240, -6063.67, -6489.94, -5905.64, -6283.28, 5530.92, 5559.91, 5484.54, 5490.80, 0.09, 0.99, 0.38
241, -6311.22, -6606.30, -6079.09, -6287.41, 5510.73, 5539.72, 5464.46, 5470.72, 0.09, 0.99, 0.38
242, -6090.49, -6459.97, -6072.28, -6283.16, 5517.06, 5546.00, 5470.83, 5477.14, 0.09, 0.99, 0.38
243, -5718.87, -6322.79, -6042.44, -6287.48, 5523.52, 5552.40, 5477.50, 5483.82, 0.09, 0.99, 0.38
244, -6052.20, -6459.14, -6054.95, -6295.21, 5501.88, 5530.80, 5455.68, 5461.96, 0.09, 0.99, 0.38
245, -6318.97, -6611.35, -6091.16, -6294.68, 5476.60, 5505.44, 5430.27, 5436.66, 0.09, 0.99, 0.38
246, -6177.73, -6501.79, -6087.77, -6288.98, 5478.39, 5507.20, 5432.17, 5438.34, 0.09, 0.99, 0.38
247, -5948.34, -6337.30, -6055.56, -6291.05, 5487.84, 5516.72, 5441.62, 5447.81, 0.09, 0.99, 0.38
248, -6070.55, -6428.23, -6058.75, -6298.94, 5470.95, 5499.85, 5424.68, 5430.92, 0.09, 0.99, 0.38
249, -6314.21, -6607.02, -6097.18, -6301.87, 5444.88, 5473.81, 5398.57, 5404.79, 0.09, 0.98, 0.38
250, -6233.19, -6542.11, -6103.48, -6296.91, 5442.94, 5471.84, 5396.56, 5402.77, 0.09, 0.98, 0.38
251, -5988.05, -6358.13, -6071.14, -6296.42, 5453.76, 5482.73, 5407.36, 5413.64, 0.09, 0.98, 0.38
252, -6040.27, -6400.58, -6064.92, -6303.62, 5441.44, 5470.39, 5395.04, 5401.32, 0.09, 0.98, 0.38
253, -6295.77, -6592.11, -6100.53, -6307.13, 5413.08, 5442.14, 5366.77, 5373.02, 0.09, 0.98, 0.38
254, -6281.96, -6577.94, -6117.87, -6304.78, 5408.27, 5437.35, 5361.94, 5368.31, 0.09, 0.98, 0.39
255, -6029.58, -6387.82, -6089.20, -6303.44, 5420.66, 5449.65, 5374.30, 5380.60, 0.09, 0.98, 0.39
0, -6014.88, -6380.17, -6074.60, -6310.30, 5414.35, 5443.36, 5368.06, 5374.25, 0.09, 0.98, 0.39
1, -6270.80, -6573.25, -6106.85, -6316.25, 5387.17, 5416.16, 5340.81, 5347.12, 0.09, 0.98, 0.39
2, -6322.26, -6607.78, -6130.86, -6313.29, 5375.95, 5404.94, 5329.62, 5335.90, 0.09, 0.98, 0.39
3, -6079.54, -6423.96, -6107.10, -6310.48, 5387.62, 5416.65, 5341.31, 5347.57, 0.09, 0.98, 0.38
4, -5994.67, -6362.38, -6080.93, -6312.27, 5382.52, 5411.58, 5336.23, 5342.56, 0.09, 0.98, 0.38
5, -6231.91, -6541.93, -6106.30, -6318.37, 5356.01, 5385.12, 5309.72, 5315.98, 0.09, 0.98, 0.38
6, -6347.45, -6625.08, -6137.25, -6316.89, 5340.39, 5369.47, 5294.08, 5300.27, 0.09, 0.98, 0.38
7, -6133.16, -6462.52, -6122.63, -6315.33, 5352.55, 5381.58, 5306.15, 5312.47, 0.09, 0.98, 0.38
8, -5989.08, -6356.30, -6092.17, -6317.32, 5354.11, 5383.04, 5307.67, 5314.06, 0.10, 0.98, 0.37
9, -6192.93, -6511.80, -6110.50, -6324.85, 5331.16, 5360.02, 5284.80, 5290.99, 0.10, 0.98, 0.37
10, -6364.41, -6637.55, -6145.68, -6324.60, 5310.98, 5339.90, 5264.57, 5270.79, 0.10, 0.98, 0.37
11, -6188.33, -6502.35, -6136.85, -6320.07, 5317.64, 5346.63, 5271.19, 5277.45, 0.10, 0.98, 0.37
12, -5996.01, -6359.83, -6104.95, -6322.46, 5325.17, 5354.23, 5278.77, 5285.05, 0.10, 0.98, 0.37
13, -6153.35, -6481.25, -6115.71, -6331.44, 5307.27, 5336.23, 5260.84, 5267.05, 0.09, 0.98, 0.37
14, -6368.44, -6640.46, -6152.38, -6331.96, 5282.86, 5311.85, 5236.50, 5242.67, 0.09, 0.98, 0.37
15, -6243.71, -6542.85, -6151.18, -6325.97, 5284.51, 5313.43, 5237.97, 5244.23, 0.09, 0.98, 0.37
16, -6013.98, -6371.01, -6117.18, -6325.74, 5294.55, 5323.36, 5247.88, 5254.11, 0.09, 0.98, 0.37
17, -6111.01, -6446.96, -6116.58, -6332.70, 5279.19, 5308.18, 5232.65, 5238.94, 0.09, 0.98, 0.37
18, -6355.70, -6629.62, -6153.57, -6335.13, 5252.86, 5281.94, 5206.41, 5212.67, 0.09, 0.98, 0.37
19, -6293.00, -6578.54, -6162.29, -6330.15, 5250.60, 5279.66, 5204.13, 5210.39, 0.08, 0.99, 0.37
20, -6043.93, -6391.37, -6130.35, -6329.14, 5262.96, 5292.00, 5216.45, 5222.75, 0.08, 0.99, 0.37
21, -6077.44, -6420.07, -6122.19, -6337.03, 5254.49, 5283.57, 5207.93, 5214.28, 0.08, 0.99, 0.37
22, -6334.80, -6613.57, -6157.03, -6341.44, 5227.85, 5256.97, 5181.31, 5187.64, 0.08, 0.99, 0.37
23, -6337.52, -6611.22, -6173.82, -6336.50, 5220.09, 5249.15, 5173.71, 5179.82, 0.08, 0.99, 0.37
24, -6084.75, -6420.11, -6144.81, -6333.23, 5232.23, 5261.29, 5185.81, 5191.95, 0.09, 0.98, 0.37
25, -6049.25, -6396.60, -6126.57, -6338.57, 5227.54, 5256.57, 5181.04, 5187.30, 0.09, 0.98, 0.37
26, -6302.66, -6588.38, -6158.13, -6345.86, 5202.95, 5232.03, 5156.55, 5162.74, 0.09, 0.98, 0.37
27, -6370.98, -6635.14, -6181.89, -6340.99, 5189.36, 5218.48, 5142.94, 5149.13, 0.09, 0.98, 0.37
28, -6132.29, -6453.75, -6157.84, -6335.80, 5199.73, 5228.88, 5153.19, 5159.54, 0.09, 0.98, 0.37
29, -6032.33, -6381.74, -6133.23, -6340.70, 5200.98, 5230.00, 5154.49, 5160.70, 0.08, 0.98, 0.37
30, -6262.09, -6556.53, -6157.48, -6348.28, 5177.65, 5206.66, 5131.16, 5137.35, 0.08, 0.98, 0.37
31, -6394.21, -6652.28, -6189.18, -6346.49, 5161.38, 5190.32, 5114.70, 5120.94, 0.08, 0.98, 0.37
32, -6188.01, -6494.95, -6174.31, -6342.51, 5171.63, 5200.65, 5125.05, 5131.29, 0.08, 0.98, 0.37
33, -6027.48, -6376.19, -6141.90, -6343.47, 5175.12, 5204.07, 5128.43, 5134.67, 0.08, 0.98, 0.37
34, -6216.20, -6519.98, -6155.13, -6348.83, 5152.01, 5181.00, 5105.34, 5111.58, 0.09, 0.98, 0.37
35, -6401.67, -6656.46, -6190.94, -6348.66, 5131.69, 5160.75, 5085.07, 5091.24, 0.09, 0.98, 0.37
36, -6237.50, -6529.48, -6182.18, -6341.64, 5136.14, 5165.17, 5089.40, 5095.71, 0.09, 0.98, 0.37
37, -6031.98, -6376.59, -6148.54, -6342.67, 5145.04, 5174.07, 5098.25, 5104.56, 0.09, 0.98, 0.37
38, -6172.95, -6485.81, -6156.32, -6351.49, 5129.46, 5158.49, 5082.74, 5089.02, 0.09, 0.98, 0.37
39, -6398.32, -6653.20, -6193.42, -6352.57, 5105.72, 5134.73, 5059.09, 5065.35, 0.09, 0.98, 0.38
40, -6291.12, -6568.89, -6195.10, -6347.02, 5107.60, 5136.65, 5061.08, 5067.34, 0.09, 0.98, 0.38
41, -6052.83, -6390.30, -6160.34, -6345.70, 5118.59, 5147.65, 5072.04, 5078.27, 0.09, 0.98, 0.38
42, -6131.02, -6452.14, -6156.77, -6352.30, 5105.90, 5134.84, 5059.27, 5065.37, 0.09, 0.98, 0.38
43, -6381.58, -6639.79, -6193.60, -6355.79, 5081.09, 5110.03, 5034.42, 5040.50, 0.09, 0.98, 0.38
44, -6335.85, -6600.69, -6202.70, -6348.66, 5076.39, 5105.32, 5029.61, 5035.78, 0.09, 0.98, 0.38
45, -6081.48, -6408.67, -6168.99, -6344.74, 5087.66, 5116.72, 5040.90, 5047.16, 0.09, 0.98, 0.38
46, -6092.71, -6420.23, -6155.67, -6350.06, 5079.55, 5108.58, 5032.79, 5039.02, 0.09, 0.98, 0.38
47, -6350.73, -6614.66, -6189.76, -6355.49, 5054.76, 5083.88, 5008.04, 5014.14, 0.09, 0.98, 0.38
48, -6372.50, -6626.60, -6208.29, -6350.06, 5046.22, 5075.34, 4999.46, 5005.58, 0.09, 0.98, 0.38
49, -6122.19, -6437.17, -6180.50, -6346.42, 5059.29, 5088.35, 5012.54, 5018.75, 0.09, 0.98, 0.38
50, -6067.78, -6399.73, -6160.74, -6352.46, 5058.29, 5087.28, 5011.57, 5017.77, 0.10, 0.99, 0.38
51, -6313.63, -6585.54, -6188.01, -6357.64, 5032.92, 5061.89, 4986.18, 4992.33, 0.10, 0.99, 0.38
52, -6401.18, -6647.14, -6213.99, -6353.39, 5019.29, 5048.39, 4972.57, 4978.72, 0.10, 0.99, 0.38
53, -6171.41, -6472.55, -6193.47, -6349.55, 5031.94, 5061.08, 4985.27, 4991.44, 0.10, 0.99, 0.38
54, -6050.33, -6383.79, -6164.10, -6351.27, 5033.05, 5062.13, 4986.32, 4992.42, 0.10, 0.99, 0.38
55, -6269.06, -6550.22, -6184.75, -6357.86, 5010.55, 5039.60, 4963.79, 4969.98, 0.09, 0.99, 0.37
56, -6420.23, -6660.98, -6219.75, -6358.62, 4996.13, 5025.14, 4949.37, 4955.56, 0.09, 0.99, 0.37
57, -6224.94, -6511.53, -6206.43, -6353.53, 5005.81, 5034.91, 4959.11, 4965.37, 0.09, 0.99, 0.37
58, -6050.15, -6382.07, -6173.95, -6355.14, 5012.78, 5041.86, 4966.04, 4972.19, 0.09, 0.99, 0.37
59, -6222.66, -6513.52, -6182.45, -6358.47, 4989.89, 5018.88, 4943.04, 4949.19, 0.09, 0.99, 0.37
60, -6419.87, -6658.83, -6217.05, -6356.99, 4967.76, 4996.89, 4921.09, 4927.20, 0.09, 0.99, 0.38
61, -6273.84, -6546.02, -6213.43, -6352.52, 4975.07, 5004.13, 4928.31, 4934.50, 0.09, 0.99, 0.38
62, -6056.23, -6383.55, -6178.63, -6352.32, 4985.36, 5014.41, 4938.60, 4944.79, 0.09, 0.99, 0.38
63, -6175.05, -6475.12, -6178.83, -6356.41, 4967.61, 4996.67, 4920.92, 4927.08, 0.09, 0.99, 0.38
64, -6409.45, -6649.80, -6215.64, -6357.98, 4944.29, 4973.35, 4897.58, 4903.73, 0.09, 0.99, 0.38
65, -6319.73, -6578.36, -6219.17, -6351.67, 4945.26, 4974.38, 4898.54, 4904.71, 0.09, 0.99, 0.37
66, -6072.57, -6392.26, -6182.38, -6347.38, 4955.54, 4984.68, 4908.76, 4915.22, 0.09, 0.99, 0.37
67, -6130.30, -6438.69, -6175.03, -6352.95, 4944.61, 4973.71, 4897.85, 4904.33, 0.09, 0.99, 0.37
68, -6384.69, -6629.62, -6210.81, -6356.61, 4920.31, 4949.44, 4873.53, 4879.92, 0.09, 0.99, 0.37
69, -6361.93, -6608.78, -6225.72, -6353.01, 4918.68, 4947.80, 4871.83, 4878.11, 0.09, 0.99, 0.37
70, -6107.52, -6416.87, -6194.32, -6349.82, 4932.56, 4961.75, 4885.89, 4892.08, 0.09, 0.99, 0.37
71, -6097.15, -6411.93, -6176.99, -6353.57, 4926.01, 4955.14, 4879.32, 4885.44, 0.09, 0.99, 0.37
72, -6350.80, -6602.73, -6206.52, -6356.46, 4899.59, 4928.69, 4852.72, 4858.89, 0.09, 0.99, 0.37
73, -6391.95, -6629.15, -6226.61, -6350.82, 4890.02, 4919.15, 4843.24, 4849.46, 0.09, 0.99, 0.37
74, -6144.32, -6441.26, -6199.19, -6345.48, 4902.72, 4931.85, 4855.94, 4862.17, 0.09, 0.99, 0.37
75, -6069.26, -6387.90, -6176.14, -6349.95, 4903.28, 4932.38, 4856.39, 4862.69, 0.09, 0.99, 0.37
76, -6308.35, -6568.93, -6201.09, -6355.29, 4879.30, 4908.44, 4832.40, 4838.59, 0.09, 0.99, 0.37
77, -6413.36, -6643.54, -6227.82, -6350.51, 4864.45, 4893.60, 4817.69, 4823.71, 0.09, 0.99, 0.37
78, -6190.56, -6473.65, -6207.57, -6344.56, 4875.94, 4905.02, 4829.09, 4835.20, 0.09, 0.99, 0.37
79, -6055.80, -6375.37, -6180.15, -6349.55, 4883.21, 4912.38, 4836.36, 4842.55, 0.09, 0.99, 0.37
80, -6263.88, -6534.09, -6198.83, -6356.84, 4863.18, 4892.42, 4816.38, 4822.52, 0.09, 0.99, 0.37
81, -6426.04, -6652.30, -6230.19, -6353.17, 4843.82, 4873.04, 4797.04, 4803.14, 0.10, 0.99, 0.38
82, -6243.98, -6512.67, -6219.51, -6348.21, 4853.99, 4883.16, 4807.21, 4813.34, 0.10, 0.99, 0.38
83, -6054.89, -6372.21, -6185.85, -6349.10, 4862.91, 4892.08, 4816.02, 4822.21, 0.10, 0.99, 0.38
84, -6214.16, -6494.23, -6193.27, -6354.18, 4843.94, 4873.04, 4796.89, 4803.19, 0.10, 0.99, 0.38
85, -6421.86, -6647.36, -6226.66, -6351.63, 4820.44, 4849.64, 4773.51, 4779.76, 0.10, 0.99, 0.38
86, -6288.57, -6543.23, -6222.32, -6343.85, 4824.24, 4853.44, 4777.31, 4783.47, 0.10, 0.99, 0.37
87, -6061.48, -6373.60, -6187.59, -6343.42, 4836.81, 4865.95, 4789.82, 4796.04, 0.10, 0.99, 0.37
88, -6164.54, -6454.00, -6186.83, -6349.48, 4823.57, 4852.76, 4776.59, 4782.80, 0.10, 0.99, 0.37
89, -6404.98, -6633.30, -6221.85, -6350.06, 4799.43, 4828.56, 4752.43, 4758.60, 0.10, 0.99, 0.37
90, -6331.78, -6573.74, -6226.37, -6342.13, 4798.32, 4827.42, 4751.22, 4757.52, 0.10, 0.99, 0.37
91, -6084.01, -6387.93, -6194.09, -6341.57, 4814.21, 4843.33, 4767.11, 4773.48, 0.09, 0.98, 0.37
92, -6123.17, -6420.47, -6184.71, -6347.67, 4806.43, 4835.64, 4759.42, 4765.79, 0.09, 0.98, 0.37
93, -6379.66, -6613.41, -6219.46, -6351.72, 4782.98, 4812.26, 4735.95, 4742.28, 0.09, 0.98, 0.37
94, -6375.88, -6606.66, -6236.29, -6347.74, 4780.32, 4809.63, 4733.23, 4739.58, 0.09, 0.98, 0.37
95, -6121.05, -6414.01, -6205.16, -6343.34, 4794.56, 4823.80, 4747.53, 4753.84, 0.09, 0.98, 0.37
96, -6090.43, -6393.92, -6185.08, -6346.55, 4790.29, 4819.55, 4743.24, 4749.57, 0.09, 0.98, 0.37
97, -6341.01, -6582.54, -6212.78, -6349.37, 4764.81, 4794.02, 4717.72, 4724.09, 0.09, 0.98, 0.37
98, -6402.59, -6624.63, -6236.18, -6345.21, 4755.94, 4785.13, 4708.91, 4715.21, 0.09, 0.98, 0.37
99, -6159.92, -6440.23, -6209.98, -6339.11, 4768.81, 4798.05, 4721.74, 4728.09, 0.09, 0.98, 0.37
100, -6064.36, -6370.98, -6183.30, -6341.61, 4770.15, 4799.43, 4723.12, 4729.43, 0.09, 0.98, 0.37
101, -6293.49, -6544.39, -6204.26, -6345.24, 4745.92, 4775.09, 4698.87, 4705.13, 0.10, 0.98, 0.37
102, -6417.68, -6633.98, -6233.92, -6342.22, 4732.22, 4761.30, 4685.13, 4691.45, 0.10, 0.98, 0.37
103, -6202.52, -6469.02, -6213.45, -6333.72, 4741.63, 4770.85, 4694.58, 4700.82, 0.10, 0.98, 0.37
104, -6048.14, -6355.11, -6181.53, -6335.13, 4748.20, 4777.46, 4701.18, 4707.46, 0.10, 0.98, 0.37
105, -6240.76, -6501.72, -6194.54, -6339.33, 4726.99, 4756.21, 4679.96, 4686.18, 0.10, 0.98, 0.37
106, -6421.03, -6634.65, -6230.12, -6339.45, 4710.92, 4740.07, 4663.78, 4670.06, 0.10, 0.98, 0.37
107, -6252.05, -6504.45, -6221.07, -6333.52, 4720.11, 4749.37, 4672.97, 4679.27, 0.09, 0.98, 0.38
108, -6047.51, -6351.58, -6184.06, -6331.29, 4728.38, 4757.64, 4681.37, 4687.59, 0.09, 0.98, 0.38
109, -6192.13, -6462.96, -6190.02, -6337.64, 4713.00, 4742.24, 4665.88, 4672.14, 0.09, 0.98, 0.38
110, -6412.74, -6626.76, -6225.77, -6337.75, 4691.92, 4721.09, 4644.85, 4651.00, 0.09, 0.98, 0.38
111, -6295.01, -6533.82, -6222.50, -6328.40, 4693.84, 4723.01, 4646.82, 4652.98, 0.09, 0.98, 0.38
112, -6059.13, -6357.13, -6187.32, -6327.04, 4707.75, 4736.96, 4660.65, 4666.87, 0.09, 0.98, 0.38
113, -6145.08, -6425.14, -6185.20, -6334.46, 4698.36, 4727.55, 4651.24, 4657.39, 0.09, 0.98, 0.38
114, -6391.48, -6609.23, -6219.80, -6335.53, 4674.55, 4703.83, 4627.46, 4633.61, 0.09, 0.98, 0.38
115, -6337.14, -6563.68, -6226.57, -6327.38, 4672.52, 4701.78, 4625.60, 4631.73, 0.09, 0.98, 0.38
116, -6081.95, -6371.03, -6190.90, -6322.28, 4685.57, 4714.88, 4638.61, 4644.87, 0.09, 0.98, 0.38
117, -6099.25, -6386.88, -6176.95, -6326.26, 4678.62, 4708.01, 4631.64, 4637.90, 0.09, 0.99, 0.37
118, -6355.03, -6579.17, -6208.85, -6329.19, 4654.64, 4683.94, 4607.57, 4613.85, 0.09, 0.99, 0.37
119, -6368.70, -6585.02, -6225.72, -6323.31, 4649.25, 4678.53, 4602.25, 4608.57, 0.09, 0.99, 0.37
120, -6114.01, -6391.84, -6194.20, -6316.76, 4662.64, 4691.92, 4615.70, 4621.92, 0.09, 0.99, 0.37
121, -6063.67, -6356.75, -6171.79, -6319.64, 4660.92, 4690.27, 4613.94, 4620.26, 0.09, 0.99, 0.37
122, -6311.75, -6544.46, -6199.84, -6325.14, 4638.84, 4668.23, 4591.81, 4598.09, 0.09, 0.99, 0.37
123, -6390.59, -6599.26, -6223.31, -6319.33, 4627.50, 4656.87, 4580.36, 4586.67, 0.09, 0.99, 0.37
124, -6155.96, -6420.90, -6200.11, -6313.90, 4641.88, 4671.31, 4594.76, 4601.04, 0.09, 0.99, 0.37
125, -6041.74, -6337.61, -6171.45, -6316.02, 4645.79, 4675.16, 4598.71, 4605.00, 0.09, 0.99, 0.37
126, -6261.19, -6503.89, -6189.78, -6319.55, 4623.08, 4652.40, 4575.98, 4582.24, 0.09, 0.99, 0.37
127, -6401.70, -6605.70, -6219.80, -6315.87, 4607.92, 4637.29, 4560.74, 4567.04, 0.09, 0.98, 0.37
128, -6197.96, -6449.10, -6201.56, -6307.08, 4617.29, 4646.68, 4570.17, 4576.47, 0.09, 0.98, 0.37
129, -6027.53, -6322.82, -6168.12, -6307.68, 4625.78, 4655.04, 4578.67, 4584.88, 0.09, 0.98, 0.37
130, -6204.89, -6457.75, -6177.04, -6310.59, 4605.15, 4634.43, 4558.06, 4564.18, 0.09, 0.98, 0.37
131, -6396.60, -6598.97, -6210.79, -6308.65, 4586.20, 4615.48, 4539.06, 4545.18, 0.09, 0.98, 0.37
132, -6242.42, -6479.57, -6203.77, -6302.10, 4594.69, 4623.93, 4547.55, 4553.61, 0.09, 0.98, 0.38
133, -6026.03, -6317.59, -6166.31, -6299.48, 4605.11, 4634.37, 4557.95, 4564.07, 0.09, 0.98, 0.38
134, -6153.39, -6416.16, -6169.30, -6305.65, 4591.70, 4621.00, 4544.51, 4550.79, 0.09, 0.98, 0.38
135, -6382.96, -6586.92, -6204.53, -6305.63, 4570.17, 4599.45, 4523.01, 4529.22, 0.09, 0.98, 0.38
136, -6284.42, -6508.65, -6205.20, -6297.74, 4573.08, 4602.34, 4525.89, 4532.08, 0.09, 0.98, 0.38
137, -6040.94, -6325.88, -6169.48, -6295.17, 4587.76, 4616.98, 4540.58, 4546.81, 0.09, 0.98, 0.38
138, -6105.04, -6376.84, -6161.95, -6299.73, 4578.24, 4607.48, 4531.06, 4537.25, 0.09, 0.99, 0.37
139, -6355.61, -6564.24, -6195.39, -6300.91, 4554.64, 4584.01, 4507.48, 4513.69, 0.09, 0.99, 0.37
140, -6320.22, -6532.79, -6204.22, -6292.44, 4551.53, 4580.88, 4504.35, 4510.56, 0.09, 0.99, 0.37
141, -6062.98, -6338.33, -6169.24, -6286.61, 4565.54, 4594.76, 4518.29, 4524.55, 0.09, 0.99, 0.37
142, -6060.70, -6339.56, -6153.12, -6290.83, 4561.57, 4590.82, 4514.45, 4520.57, 0.09, 0.99, 0.37
143, -6313.36, -6529.37, -6181.42, -6291.95, 4536.31, 4565.52, 4489.12, 4495.23, 0.09, 0.99, 0.38
144, -6346.08, -6549.51, -6199.97, -6285.73, 4529.74, 4558.95, 4482.53, 4488.68, 0.09, 0.99, 0.38
145, -6097.65, -6361.46, -6172.77, -6281.69, 4546.50, 4575.71, 4499.36, 4505.46, 0.09, 0.99, 0.38
146, -6025.90, -6309.70, -6146.35, -6282.38, 4545.32, 4574.60, 4498.11, 4504.30, 0.09, 0.99, 0.38
147, -6266.22, -6491.21, -6170.51, -6286.11, 4522.63, 4552.00, 4475.40, 4481.64, 0.09, 0.99, 0.38
148, -6363.63, -6559.92, -6195.84, -6280.55, 4510.65, 4540.00, 4463.40, 4469.61, 0.09, 0.98, 0.38
149, -6138.33, -6388.53, -6175.61, -6275.83, 4526.34, 4555.64, 4479.16, 4485.39, 0.09, 0.98, 0.38
150, -6004.21, -6289.58, -6142.88, -6275.14, 4530.12, 4559.42, 4483.00, 4489.21, 0.09, 0.98, 0.38
151, -6213.16, -6448.28, -6158.93, -6279.01, 4509.17, 4538.48, 4462.10, 4468.29, 0.09, 0.98, 0.38
152, -6370.72, -6563.39, -6191.14, -6276.75, 4494.73, 4524.04, 4447.57, 4453.74, 0.09, 0.98, 0.38
153, -6180.26, -6416.87, -6176.14, -6268.70, 4504.97, 4534.32, 4457.81, 4463.91, 0.09, 0.98, 0.38
154, -5996.12, -6280.24, -6142.39, -6269.57, 4516.15, 4545.43, 4468.94, 4475.11, 0.09, 0.98, 0.38
155, -6161.50, -6406.95, -6151.02, -6275.05, 4499.76, 4529.11, 4452.60, 4458.82, 0.09, 0.98, 0.38
156, -6363.79, -6556.03, -6183.43, -6271.56, 4478.75, 4508.06, 4431.48, 4437.74, 0.09, 0.98, 0.38
157, -6223.19, -6446.29, -6176.95, -6262.91, 4484.79, 4514.14, 4437.56, 4443.86, 0.09, 0.98, 0.38
158, -5998.87, -6278.65, -6141.32, -6262.04, 4499.14, 4528.40, 4451.84, 4458.10, 0.09, 0.98, 0.37
159, -6108.62, -6364.15, -6141.37, -6267.97, 4487.92, 4517.18, 4440.69, 4446.90, 0.09, 0.98, 0.37
160, -6346.13, -6541.28, -6176.37, -6268.43, 4466.57, 4495.92, 4419.45, 4425.62, 0.09, 0.98, 0.37
161, -6263.83, -6474.50, -6177.82, -6258.58, 4466.86, 4496.23, 4419.63, 4425.94, 0.09, 0.98, 0.37
162, -6013.11, -6285.40, -6140.60, -6253.71, 4480.94, 4510.31, 4433.71, 4440.02, 0.09, 0.98, 0.37
163, -6059.31, -6323.40, -6131.78, -6259.49, 4475.06, 4504.50, 4427.84, 4434.09, 0.09, 0.98, 0.38
164, -6314.01, -6514.57, -6165.77, -6262.38, 4453.23, 4482.58, 4406.00, 4412.21, 0.09, 0.98, 0.38
165, -6298.81, -6498.46, -6177.75, -6254.73, 4450.19, 4479.54, 4402.89, 4409.08, 0.09, 0.98, 0.38
166, -6041.61, -6303.93, -6144.09, -6248.74, 4465.21, 4494.56, 4417.96, 4424.08, 0.09, 0.98, 0.38
167, -6016.17, -6287.10, -6122.17, -6249.48, 4460.27, 4489.71, 4413.13, 4419.27, 0.09, 0.98, 0.38
168, -6267.16, -6476.10, -6149.72, -6251.72, 4436.80, 4466.21, 4389.66, 4395.78, 0.09, 0.98, 0.38
169, -6319.89, -6511.20, -6170.91, -6246.13, 4429.91, 4459.35, 4382.77, 4388.97, 0.09, 0.98, 0.38
170, -6076.41, -6326.71, -6145.46, -6241.70, 4447.24, 4476.67, 4400.03, 4406.31, 0.09, 0.98, 0.38
171, -5987.12, -6262.00, -6118.25, -6243.49, 4449.76, 4479.09, 4402.49, 4408.64, 0.09, 0.98, 0.38
172, -6220.54, -6438.87, -6140.76, -6248.01, 4428.75, 4458.10, 4381.55, 4387.56, 0.09, 0.98, 0.38
173, -6335.94, -6521.34, -6167.94, -6243.04, 4416.39, 4445.78, 4369.27, 4375.33, 0.09, 0.98, 0.38
174, -6117.02, -6353.91, -6146.93, -6235.18, 4429.22, 4458.48, 4381.93, 4388.16, 0.09, 0.98, 0.38
175, -5966.51, -6242.46, -6112.96, -6234.33, 4435.41, 4464.63, 4388.05, 4394.31, 0.09, 0.98, 0.38
176, -6163.45, -6392.24, -6126.32, -6238.06, 4415.85, 4445.18, 4368.63, 4374.79, 0.09, 0.98, 0.38
177, -6334.84, -6517.86, -6158.40, -6235.09, 4399.69, 4428.95, 4352.40, 4358.50, 0.09, 0.98, 0.38
178, -6158.87, -6382.23, -6146.86, -6227.91, 4410.49, 4439.75, 4363.24, 4369.23, 0.09, 0.98, 0.38
179, -5961.08, -6235.06, -6111.93, -6227.78, 4422.96, 4452.31, 4375.71, 4381.84, 0.09, 0.99, 0.38
180, -6105.96, -6345.15, -6112.82, -6228.07, 4403.47, 4432.91, 4356.27, 4362.41, 0.09, 0.99, 0.38
181, -6321.12, -6504.51, -6147.18, -6226.79, 4384.03, 4413.37, 4336.82, 4342.92, 0.09, 0.99, 0.38
