%OpenBCI Raw EEG Data
%
%Sample Rate = 250.0 Hz
%First Column = SampleIndex
%Other Columns = EEG data in microvolts followed by Accel Data (in G) interleaved with Aux Data
0, -66200.14, 120821.88, -95001.39, -90340.25, -187302.22, -142302.47, -175628.84, -187500.02, 0.06, 0.21, 0.88
1, -66193.95, 120809.68, -94998.17, -90335.60, -187301.72, -142297.77, -175629.03, -187500.02, 0.00, 0.00, 0.00
2, -66182.75, 121136.13, -94986.57, -90324.23, -187293.63, -142287.64, -175623.28, -187500.02, 0.00, 0.00, 0.00
3, -66180.92, 121058.23, -94985.39, -90321.27, -187296.19, -142287.84, -175623.59, -187500.02, 0.00, 0.00, 0.00
4, -66240.53, 120743.92, -95048.58, -90379.55, -187361.02, -142348.91, -175683.44, -187500.02, 0.00, 0.00, 0.00
5, -66232.27, 120727.89, -95043.26, -90374.13, -187358.59, -142342.86, -175680.08, -187500.02, 0.00, 0.00, 0.00
6, -66213.94, 121061.11, -95024.64, -90356.86, -187346.27, -142325.52, -175667.30, -187500.02, -0.21, 0.41, 0.86
7, -66182.10, 121012.88, -94992.66, -90325.09, -187318.47, -142295.47, -175637.55, -187500.02, 0.00, 0.00, 0.00
8, -66297.69, 120804.20, -95109.24, -90439.24, -187438.58, -142411.14, -175753.13, -187500.02, 0.00, 0.00, 0.00
9, -66308.10, 120726.33, -95118.78, -90450.16, -187453.84, -142422.38, -175767.30, -187500.02, 0.00, 0.00, 0.00
10, -66222.63, 121002.91, -95031.73, -90366.76, -187372.08, -142337.84, -175684.97, -187500.02, 0.00, 0.00, 0.00
11, -66199.07, 121068.58, -95006.73, -90342.22, -187352.22, -142314.14, -175659.53, -187500.02, 0.00, 0.00, 0.00
12, -66273.97, 120809.92, -95079.84, -90411.35, -187431.11, -142386.47, -175732.06, -187500.02, 0.00, 0.00, 0.00
13, -66274.73, 120655.80, -95081.34, -90409.54, -187437.88, -142387.64, -175738.11, -187500.02, 0.00, 0.00, 0.00
14, -66186.55, 120920.20, -94992.36, -90320.65, -187354.58, -142300.78, -175648.58, -187500.02, 0.00, 0.00, 0.00
15, -66226.88, 121107.85, -95028.77, -90356.05, -187397.06, -142339.88, -175682.47, -187500.02, 0.00, 0.00, 0.00
16, -66303.79, 120857.29, -95101.75, -90428.23, -187476.70, -142414.88, -175761.59, -187500.02, -0.21, 0.45, 0.90
17, -66323.88, 120641.23, -95120.84, -90445.98, -187500.02, -142435.50, -175786.86, -187500.02, 0.00, 0.00, 0.00
18, -66245.54, 120858.98, -95044.73, -90370.54, -187431.13, -142362.03, -175714.70, -187500.02, 0.00, 0.00, 0.00
19, -66187.63, 121087.30, -94988.27, -90313.59, -187381.31, -142308.67, -175657.45, -187500.02, 0.00, 0.00, 0.00
20, -66226.32, 120911.51, -95026.31, -90349.97, -187424.83, -142348.88, -175692.66, -187500.02, 0.00, 0.00, 0.00
21, -66259.98, 120702.19, -95059.82, -90382.05, -187463.53, -142384.78, -175731.13, -187500.02, 0.00, 0.00, 0.00
22, -66215.74, 120848.30, -95015.50, -90338.30, -187423.33, -142344.22, -175691.44, -187500.02, 0.00, 0.00, 0.00
23, -66167.64, 121144.91, -94964.67, -90288.02, -187378.20, -142297.58, -175640.98, -187500.02, 0.00, 0.00, 0.00
24, -66243.84, 121025.91, -95040.33, -90361.88, -187459.98, -142375.05, -175716.83, -187500.02, 0.00, 0.00, 0.00
25, -66282.04, 120764.48, -95078.98, -90399.34, -187500.02, -142416.89, -175762.72, -187500.02, 0.00, 0.00, 0.00
26, -66261.43, 120854.07, -95058.03, -90379.32, -187489.11, -142398.89, -175748.50, -187500.02, -0.23, 0.43, 0.88
27, -66183.65, 121168.47, -94980.12, -90302.85, -187417.19, -142323.25, -175672.75, -187500.02, 0.00, 0.00, 0.00
28, -66230.43, 121112.55, -95027.19, -90347.02, -187467.84, -142368.78, -175715.13, -187500.02, 0.00, 0.00, 0.00
29, -66332.58, 120863.14, -95129.58, -90446.46, -187500.02, -142469.92, -175819.17, -187500.02, 0.00, 0.00, 0.00
30, -66305.82, 120835.56, -95103.52, -90421.23, -187500.02, -142445.88, -175796.11, -187500.02, 0.00, 0.00, 0.00
31, -66195.72, 121152.51, -94993.28, -90313.07, -187445.20, -142339.02, -175683.56, -187500.02, 0.00, 0.00, 0.00
32, -66202.45, 121170.13, -95000.43, -90319.91, -187457.84, -142346.56, -175685.00, -187500.02, 0.00, 0.00, 0.00
33, -66300.39, 120884.51, -95101.39, -90416.54, -187500.02, -142445.30, -175786.81, -187500.02, 0.00, 0.00, 0.00
34, -66299.88, 120837.17, -95103.67, -90415.82, -187500.02, -142447.47, -175794.92, -187500.02, 0.00, 0.00, 0.00
35, -66223.32, 121146.52, -95028.64, -90341.61, -187498.97, -142374.17, -175725.14, -187500.02, 0.00, 0.00, 0.00
36, -66227.16, 121229.35, -95030.23, -90343.94, -187500.02, -142378.84, -175727.38, -187500.02, -0.26, 0.41, 0.85
37, -66310.94, 120955.39, -95113.06, -90426.46, -187500.02, -142462.66, -175812.00, -187500.02, 0.00, 0.00, 0.00
38, -66314.12, 120848.26, -95115.88, -90429.95, -187500.02, -142467.84, -175819.17, -187500.02, 0.00, 0.00, 0.00
39, -66273.19, 121085.30, -95075.20, -90390.83, -187500.02, -142430.92, -175779.19, -187500.02, 0.00, 0.00, 0.00
40, -66274.84, 121222.38, -95076.96, -90392.10, -187500.02, -142432.94, -175777.28, -187500.02, 0.00, 0.00, 0.00
41, -66376.92, 120998.35, -95176.36, -90490.30, -187500.02, -142532.67, -175882.56, -187500.02, 0.00, 0.00, 0.00
42, -66395.81, 120788.64, -95194.87, -90508.45, -187500.02, -142552.53, -175905.70, -187500.02, 0.00, 0.00, 0.00
43, -66315.63, 120971.50, -95115.81, -90431.60, -187500.02, -142475.28, -175829.41, -187500.02, 0.00, 0.00, 0.00
44, -66289.44, 121203.91, -95088.70, -90403.73, -187500.02, -142450.61, -175800.27, -187500.02, 0.00, 0.00, 0.00
45, -66367.45, 121025.17, -95166.10, -90478.45, -187500.02, -142529.97, -175880.84, -187500.02, -0.28, 0.42, 0.87
46, -66388.97, 120794.48, -95189.13, -90500.09, -187500.02, -142554.23, -175909.70, -187500.02, 0.00, 0.00, 0.00
47, -66309.91, 120921.28, -95111.70, -90422.64, -187500.02, -142479.16, -175833.33, -187500.02, 0.00, 0.00, 0.00
48, -66260.09, 121237.94, -95059.73, -90373.15, -187500.02, -142429.88, -175777.44, -187500.02, 0.00, 0.00, 0.00
49, -66340.35, 121075.69, -95137.76, -90450.71, -187500.02, -142509.36, -175857.55, -187500.02, 0.00, 0.00, 0.00
50, -66373.52, 120804.45, -95170.64, -90483.99, -187500.02, -142545.45, -175897.31, -187500.02, 0.00, 0.00, 0.00
51, -66305.98, 120896.98, -95102.78, -90417.32, -187500.02, -142480.08, -175833.77, -187500.02, 0.00, 0.00, 0.00
52, -66316.93, 121197.28, -95112.39, -90425.55, -187500.02, -142489.91, -175843.78, -187500.02, 0.00, 0.00, 0.00
53, -66365.44, 121078.68, -95159.84, -90471.25, -187500.02, -142539.63, -175898.03, -187500.02, 0.00, 0.00, 0.00
54, -66370.20, 120806.30, -95165.99, -90477.83, -187500.02, -142550.03, -175909.91, -187500.02, 0.00, 0.00, 0.00
55, -66342.37, 120847.74, -95141.18, -90455.95, -187500.02, -142527.55, -175883.05, -187500.02, -0.27, 0.42, 0.87
56, -66349.63, 121162.30, -95150.10, -90466.16, -187500.02, -142538.86, -175893.50, -187500.02, 0.00, 0.00, 0.00
57, -66347.06, 121103.29, -95148.71, -90464.26, -187500.02, -142539.66, -175899.48, -187500.02, 0.00, 0.00, 0.00
58, -66382.20, 120836.95, -95184.37, -90498.84, -187500.02, -142575.53, -175940.78, -187500.02, 0.00, 0.00, 0.00
59, -66362.08, 120800.49, -95164.80, -90480.69, -187500.02, -142557.31, -175918.64, -187500.02, 0.00, 0.00, 0.00
60, -66387.05, 121109.80, -95190.22, -90506.16, -187500.02, -142583.88, -175942.58, -187500.02, 0.00, 0.00, 0.00
61, -66365.84, 121120.81, -95168.74, -90484.28, -187500.02, -142563.59, -175926.75, -187500.02, 0.00, 0.00, 0.00
62, -66348.11, 120847.74, -95151.48, -90466.07, -187500.02, -142547.78, -175912.56, -187500.02, 0.00, 0.00, 0.00
63, -66373.10, 120775.99, -95175.78, -90490.27, -187500.02, -142571.84, -175931.77, -187500.02, 0.00, 0.00, 0.00
64, -66405.20, 121062.70, -95210.34, -90524.85, -187500.02, -142607.03, -175966.38, -187500.02, 0.00, 0.00, 0.00
65, -66414.61, 121180.34, -95221.13, -90534.66, -187500.02, -142621.02, -175982.47, -187500.02, -0.26, 0.44, 0.87
66, -66377.39, 120898.52, -95184.99, -90497.65, -187500.02, -142586.98, -175951.11, -187500.02, 0.00, 0.00, 0.00
67, -66353.48, 120773.87, -95162.64, -90475.34, -187500.02, -142566.44, -175925.33, -187500.02, 0.00, 0.00, 0.00
68, -66363.20, 120973.38, -95172.52, -90485.54, -187500.02, -142577.92, -175934.33, -187500.02, 0.00, 0.00, 0.00
69, -66392.88, 121200.41, -95199.45, -90513.70, -187500.02, -142608.06, -175967.61, -187500.02, 0.00, 0.00, 0.00
70, -66391.92, 120973.72, -95197.69, -90511.13, -187500.02, -142610.73, -175972.31, -187500.02, 0.00, 0.00, 0.00
71, -66365.10, 120747.36, -95171.84, -90484.04, -187500.02, -142586.06, -175941.66, -187500.02, 0.00, 0.00, 0.00
72, -66419.59, 120883.20, -95226.95, -90536.48, -187500.02, -142640.27, -175989.72, -187500.02, 0.00, 0.00, 0.00
73, -66438.21, 121150.12, -95244.65, -90552.86, -187500.02, -142659.80, -176011.13, -187500.02, 0.00, 0.00, 0.00
74, -66443.48, 120994.03, -95248.96, -90556.57, -187500.02, -142665.13, -176019.92, -187500.02, 0.00, 0.00, 0.00
75, -66455.80, 120743.41, -95262.70, -90569.40, -187500.02, -142678.22, -176037.55, -187500.02, -0.25, 0.44, 0.88
76, -66392.77, 120773.71, -95202.23, -90509.25, -187500.02, -142619.14, -175976.89, -187500.02, 0.00, 0.00, 0.00
77, -66359.71, 121096.56, -95169.37, -90474.98, -187500.02, -142587.83, -175937.34, -187500.02, 0.00, 0.00, 0.00
78, -66479.27, 121007.47, -95288.48, -90589.07, -187500.02, -142705.41, -176059.08, -187500.02, 0.00, 0.00, 0.00
79, -66521.09, 120720.05, -95331.53, -90628.88, -187500.02, -142747.42, -176109.55, -187500.02, 0.00, 0.00, 0.00
80, -66502.56, 120745.70, -95315.41, -90612.88, -187500.02, -142731.02, -176098.38, -187500.02, 0.00, 0.00, 0.00
81, -66413.49, 121033.06, -95226.99, -90527.18, -187500.02, -142643.20, -176011.28, -187500.02, 0.00, 0.00, 0.00
82, -66419.41, 121041.51, -95232.55, -90531.34, -187500.02, -142648.47, -176012.42, -187500.02, 0.00, 0.00, 0.00
83, -66491.23, 120779.91, -95305.64, -90600.40, -187500.02, -142720.22, -176086.56, -187500.02, 0.00, 0.00, 0.00
84, -66495.70, 120766.65, -95313.53, -90606.01, -187500.02, -142728.56, -176097.86, -187500.02, -0.25, 0.43, 0.88
85, -66464.19, 121089.09, -95283.52, -90577.11, -187500.02, -142701.33, -176071.30, -187500.02, 0.00, 0.00, 0.00
86, -66421.54, 121132.84, -95240.18, -90535.18, -187500.02, -142661.14, -176027.67, -187500.02, 0.00, 0.00, 0.00
87, -66501.38, 120928.88, -95321.58, -90613.68, -187500.02, -142741.81, -176104.34, -187500.02, 0.00, 0.00, 0.00
88, -66580.63, 120798.14, -95405.89, -90695.82, -187500.02, -142824.27, -176190.28, -187500.02, 0.00, 0.00, 0.00
89, -66507.30, 121040.62, -95337.59, -90628.30, -187500.02, -142757.61, -176127.58, -187500.02, 0.00, 0.00, 0.00
90, -66457.75, 121158.84, -95289.73, -90582.30, -187500.02, -142713.97, -176088.41, -187500.02, 0.00, 0.00, 0.00
91, -66421.09, 120923.91, -95253.27, -90545.26, -187500.02, -142680.23, -176050.53, -187500.02, 0.00, 0.00, 0.00
92, -66451.48, 120806.23, -95284.86, -90574.67, -187500.02, -142712.73, -176075.50, -187500.02, 0.00, 0.00, 0.00
93, -66488.01, 121043.99, -95321.58, -90609.99, -187500.02, -142751.11, -176115.33, -187500.02, 0.00, 0.00, 0.00
94, -66487.01, 121238.27, -95319.99, -90610.08, -187500.02, -142754.34, -176122.86, -187500.02, -0.24, 0.44, 0.88
95, -66483.07, 120976.33, -95317.63, -90607.53, -187500.02, -142754.80, -176128.86, -187500.02, 0.00, 0.00, 0.00
96, -66448.54, 120799.87, -95285.28, -90575.44, -187500.02, -142721.27, -176094.48, -187500.02, 0.00, 0.00, 0.00
97, -66477.77, 120970.79, -95315.88, -90605.34, -187500.02, -142751.58, -176125.22, -187500.02, 0.00, 0.00, 0.00
98, -66482.73, 121223.48, -95322.41, -90612.56, -187500.02, -142759.56, -176139.27, -187500.02, 0.00, 0.00, 0.00
99, -66506.90, 121052.82, -95347.69, -90637.04, -187500.02, -142785.95, -176173.06, -187500.02, 0.00, 0.00, 0.00
100, -66479.31, 120819.24, -95321.88, -90610.15, -187500.02, -142761.23, -176148.95, -187500.02, 0.00, 0.00, 0.00
101, -66474.87, 120956.35, -95319.70, -90606.52, -187500.02, -142759.67, -176140.88, -187500.02, 0.00, 0.00, 0.00
102, -66442.62, 121203.78, -95288.27, -90575.19, -187500.02, -142731.48, -176112.09, -187500.02, 0.00, 0.00, 0.00
103, -66422.38, 121094.26, -95267.40, -90554.27, -187500.02, -142714.83, -176092.63, -187500.02, 0.00, 0.00, 0.00
104, -66496.75, 120821.59, -95343.20, -90627.16, -187500.02, -142791.14, -176168.28, -187500.02, -0.24, 0.44, 0.88
105, -66452.96, 120785.23, -95299.48, -90584.45, -187500.02, -142748.83, -176126.58, -187500.02, 0.00, 0.00, 0.00
106, -66386.29, 121104.07, -95231.86, -90520.07, -187500.02, -142681.81, -176058.78, -187500.02, 0.00, 0.00, 0.00
107, -66509.09, 121030.87, -95352.34, -90639.38, -187500.02, -142803.08, -176182.05, -187500.02, 0.00, 0.00, 0.00
108, -66540.56, 120616.52, -95382.53, -90669.31, -187500.02, -142837.56, -176221.86, -187500.02, 0.00, 0.00, 0.00
109, -66523.08, 120473.13, -95366.02, -90654.58, -187500.02, -142823.27, -176211.89, -187500.02, 0.00, 0.00, 0.00
110, -66430.88, 120692.17, -95272.99, -90564.02, -187500.02, -142733.72, -176120.31, -187500.02, 0.00, 0.00, 0.00
111, -66474.55, 120754.24, -95316.53, -90606.17, -187500.02, -142778.80, -176161.73, -187500.02, 0.00, 0.00, 0.00
112, -66572.70, 120397.06, -95415.98, -90703.87, -187500.02, -142880.44, -176266.31, -187500.02, 0.00, 0.00, 0.00
113, -66526.48, 120382.49, -95371.91, -90659.56, -187500.02, -142838.53, -176227.14, -187500.02, 0.00, 0.00, 0.00
114, -66438.88, 120897.03, -95283.38, -90573.65, -187500.02, -142752.81, -176137.94, -187500.02, -0.23, 0.45, 0.88
115, -66456.45, 121250.34, -95297.15, -90590.74, -187500.02, -142771.16, -176153.41, -187500.02, 0.00, 0.00, 0.00
116, -66500.26, 121105.15, -95341.50, -90634.29, -187500.02, -142816.78, -176202.91, -187500.02, 0.00, 0.00, 0.00
117, -66498.70, 120897.59, -95342.86, -90633.52, -187500.02, -142818.23, -176208.50, -187500.02, 0.00, 0.00, 0.00
118, -66457.70, 121100.09, -95303.41, -90594.50, -187500.02, -142781.80, -176170.14, -187500.02, 0.00, 0.00, 0.00
119, -66452.23, 121278.62, -95299.14, -90590.16, -187500.02, -142779.70, -176161.64, -187500.02, 0.00, 0.00, 0.00
120, -66506.45, 121025.26, -95355.63, -90645.69, -187500.02, -142837.64, -176220.97, -187500.02, 0.00, 0.00, 0.00
121, -66529.38, 120837.73, -95380.92, -90668.98, -187500.02, -142865.06, -176252.47, -187500.02, 0.00, 0.00, 0.00
122, -66538.01, 120972.76, -95392.39, -90678.01, -187500.02, -142876.19, -176269.47, -187500.02, 0.00, 0.00, 0.00
123, -66446.34, 121169.49, -95301.40, -90587.57, -187500.02, -142788.34, -176180.53, -187500.02, -0.23, 0.45, 0.88
124, -66488.30, 121046.96, -95343.89, -90628.50, -187500.02, -142833.03, -176220.66, -187500.02, 0.00, 0.00, 0.00
125, -66539.35, 120809.63, -95397.71, -90679.33, -187500.02, -142887.59, -176276.05, -187500.02, 0.00, 0.00, 0.00
126, -66495.92, 120863.32, -95355.82, -90636.68, -187500.02, -142848.30, -176236.22, -187500.02, 0.00, 0.00, 0.00
127, -66405.66, 121148.44, -95265.79, -90546.87, -187500.02, -142762.58, -176144.22, -187500.02, 0.00, 0.00, 0.00
128, -66463.40, 121077.20, -95323.37, -90604.00, -187500.02, -142822.56, -176201.17, -187500.02, 0.00, 0.00, 0.00
129, -66546.08, 120817.30, -95406.74, -90685.96, -187500.02, -142906.88, -176290.34, -187500.02, 0.00, 0.00, 0.00
130, -66507.21, 120836.81, -95369.50, -90650.09, -187500.02, -142873.23, -176258.36, -187500.02, 0.00, 0.00, 0.00
131, -66435.10, 121134.56, -95297.71, -90580.59, -187500.02, -142804.80, -176188.22, -187500.02, 0.00, 0.00, 0.00
132, -66476.77, 121110.60, -95338.73, -90622.04, -187500.02, -142847.31, -176230.78, -187500.02, 0.00, 0.00, 0.00
133, -66517.13, 120829.03, -95379.72, -90662.96, -187500.02, -142889.48, -176276.28, -187500.02, -0.23, 0.46, 0.88
134, -66501.51, 120766.43, -95365.32, -90647.54, -187500.02, -142875.08, -176263.89, -187500.02, 0.00, 0.00, 0.00
135, -66461.19, 121093.81, -95324.64, -90607.82, -187500.02, -142836.63, -176220.81, -187500.02, 0.00, 0.00, 0.00
136, -66545.09, 121159.28, -95407.66, -90690.73, -187500.02, -142922.77, -176306.23, -187500.02, 0.00, 0.00, 0.00
137, -66546.57, 120865.98, -95410.45, -90693.92, -187500.02, -142928.11, -176315.98, -187500.02, 0.00, 0.00, 0.00
138, -66602.23, 120765.98, -95469.53, -90750.02, -187500.02, -142986.67, -176379.64, -187500.02, 0.00, 0.00, 0.00
139, -66560.14, 120993.14, -95429.83, -90711.60, -187500.02, -142948.72, -176341.64, -187500.02, 0.00, 0.00, 0.00
140, -66513.96, 121167.64, -95387.27, -90668.26, -187500.02, -142907.08, -176293.66, -187500.02, 0.00, 0.00, 0.00
141, -66612.06, 120932.61, -95487.68, -90763.66, -187500.02, -143005.81, -176393.50, -187500.02, 0.00, 0.00, 0.00
142, -66624.13, 120718.84, -95503.41, -90775.51, -187500.02, -143019.22, -176412.19, -187500.02, 0.00, 0.00, 0.00
143, -66549.52, 120930.13, -95432.71, -90704.92, -187500.02, -142948.28, -176344.70, -187500.02, -0.24, 0.45, 0.88
144, -66476.92, 121144.69, -95361.03, -90636.14, -187500.02, -142879.77, -176272.98, -187500.02, 0.00, 0.00, 0.00
145, -66576.30, 120959.99, -95461.84, -90734.42, -187500.02, -142979.08, -176373.58, -187500.02, 0.00, 0.00, 0.00
146, -66650.11, 120718.73, -95537.48, -90807.55, -187500.02, -143054.63, -176453.19, -187500.02, 0.00, 0.00, 0.00
147, -66625.09, 120862.34, -95514.59, -90784.34, -187500.02, -143032.66, -176434.88, -187500.02, 0.00, 0.00, 0.00
148, -66566.17, 121112.84, -95455.76, -90726.06, -187500.02, -142976.08, -176384.69, -187500.02, 0.00, 0.00, 0.00
149, -66518.59, 120976.00, -95408.89, -90678.61, -187500.02, -142930.92, -176338.06, -187500.02, 0.00, 0.00, 0.00
150, -66587.56, 120734.42, -95481.30, -90748.10, -187500.02, -143002.44, -176406.20, -187500.02, 0.00, 0.00, 0.00
151, -66617.49, 120802.55, -95514.74, -90781.70, -187500.02, -143035.98, -176442.09, -187500.02, 0.00, 0.00, 0.00
152, -66526.03, 121066.27, -95422.92, -90692.87, -187500.02, -142950.17, -176355.25, -187500.02, -0.24, 0.45, 0.87
153, -66519.55, 121003.60, -95415.84, -90685.80, -187500.02, -142946.08, -176344.80, -187500.02, 0.00, 0.00, 0.00
154, -66614.37, 120736.97, -95512.53, -90779.64, -187500.02, -143042.36, -176442.97, -187500.02, 0.00, 0.00, 0.00
155, -66614.32, 120712.70, -95514.84, -90781.48, -187500.02, -143046.59, -176452.05, -187500.02, 0.00, 0.00, 0.00
156, -66566.20, 120995.98, -95466.20, -90734.06, -187500.02, -143002.28, -176411.30, -187500.02, 0.00, 0.00, 0.00
157, -66558.06, 120990.86, -95457.70, -90724.68, -187500.02, -142996.86, -176403.61, -187500.02, 0.00, 0.00, 0.00
158, -66630.86, 120736.43, -95530.77, -90795.15, -187500.02, -143070.47, -176477.31, -187500.02, 0.00, 0.00, 0.00
159, -66619.02, 120642.20, -95523.41, -90787.75, -187500.02, -143062.30, -176473.13, -187500.02, 0.00, 0.00, 0.00
160, -66524.73, 120901.12, -95434.16, -90698.81, -187500.02, -142974.89, -176380.06, -187500.02, 0.00, 0.00, 0.00
161, -66571.20, 121000.56, -95481.93, -90744.93, -187500.02, -143023.56, -176422.69, -187500.02, 0.00, 0.00, 0.00
162, -66665.84, 120729.26, -95575.66, -90836.16, -187500.02, -143118.61, -176521.00, -187500.02, -0.24, 0.45, 0.87
163, -66663.54, 120603.88, -95576.52, -90835.19, -187500.02, -143121.02, -176526.81, -187500.02, 0.00, 0.00, 0.00
164, -66588.66, 120847.70, -95504.89, -90762.36, -187500.02, -143051.42, -176460.73, -187500.02, 0.00, 0.00, 0.00
165, -66546.23, 121006.53, -95462.38, -90719.67, -187500.02, -143013.20, -176417.84, -187500.02, 0.00, 0.00, 0.00
166, -66630.88, 120786.16, -95546.53, -90802.04, -187500.02, -143100.27, -176500.08, -187500.02, 0.00, 0.00, 0.00
167, -66658.35, 120608.31, -95575.63, -90830.83, -187500.02, -143131.61, -176533.72, -187500.02, 0.00, 0.00, 0.00
168, -66592.86, 120802.70, -95509.85, -90768.24, -187500.02, -143072.81, -176473.28, -187500.02, 0.00, 0.00, 0.00
169, -66538.48, 121029.75, -95453.57, -90713.41, -187500.02, -143023.27, -176417.38, -187500.02, 0.00, 0.00, 0.00
170, -66621.70, 120864.28, -95537.56, -90794.93, -187500.02, -143108.02, -176500.00, -187500.02, 0.00, 0.00, 0.00
171, -66660.25, 120657.91, -95578.60, -90836.03, -187500.02, -143150.56, -176547.08, -187500.02, 0.00, 0.00, 0.00
172, -66605.78, 120777.34, -95526.57, -90784.76, -187500.02, -143100.64, -176499.03, -187500.02, -0.25, 0.44, 0.87
173, -66499.09, 121028.86, -95420.13, -90681.60, -187500.02, -142999.17, -176393.25, -187500.02, 0.00, 0.00, 0.00
174, -66552.56, 120950.47, -95473.91, -90736.34, -187500.02, -143055.47, -176445.27, -187500.02, 0.00, 0.00, 0.00
175, -66662.60, 120702.79, -95587.16, -90846.77, -187500.02, -143168.06, -176561.41, -187500.02, 0.00, 0.00, 0.00
176, -66632.25, 120756.84, -95560.43, -90818.80, -187500.02, -143142.64, -176538.28, -187500.02, 0.00, 0.00, 0.00
177, -66531.84, 121104.48, -95461.19, -90721.84, -187500.02, -143049.23, -176442.91, -187500.02, 0.00, 0.00, 0.00
178, -66589.98, 121064.64, -95520.38, -90780.24, -187500.02, -143112.09, -176502.47, -187500.02, 0.00, 0.00, 0.00
179, -66664.26, 120782.72, -95596.42, -90855.41, -187500.02, -143190.05, -176584.14, -187500.02, 0.00, 0.00, 0.00
180, -66637.45, 120795.55, -95571.56, -90831.25, -187500.02, -143167.80, -176564.52, -187500.02, 0.00, 0.00, 0.00
181, -66567.05, 121107.63, -95500.38, -90760.98, -187500.02, -143101.81, -176498.48, -187500.02, 0.00, 0.00, 0.00
182, -66562.91, 121143.73, -95496.69, -90757.20, -187500.02, -143102.80, -176494.05, -187500.02, -0.26, 0.45, 0.87
183, -66636.56, 120858.96, -95569.87, -90829.10, -187500.02, -143179.95, -176569.61, -187500.02, 0.00, 0.00, 0.00
184, -66584.10, 120792.24, -95517.02, -90777.12, -187500.02, -143133.33, -176523.67, -187500.02, 0.00, 0.00, 0.00
185, -66521.98, 121095.84, -95455.31, -90716.88, -187500.02, -143075.88, -176465.91, -187500.02, 0.00, 0.00, 0.00
186, -66524.73, 121178.46, -95457.28, -90719.60, -187500.02, -143081.92, -176465.77, -187500.02, 0.00, 0.00, 0.00
187, -66599.48, 120937.82, -95531.77, -90793.52, -187500.02, -143159.09, -176542.75, -187500.02, 0.00, 0.00, 0.00
188, -66610.25, 120811.45, -95544.52, -90806.73, -187500.02, -143175.50, -176560.25, -187500.02, 0.00, 0.00, 0.00
189, -66558.24, 121077.90, -95496.75, -90759.52, -187500.02, -143131.47, -176516.34, -187500.02, 0.00, 0.00, 0.00
190, -66506.98, 121214.02, -95446.26, -90710.13, -187500.02, -143086.13, -176468.69, -187500.02, 0.00, 0.00, 0.00
191, -66567.52, 121028.66, -95506.88, -90768.22, -187500.02, -143148.61, -176527.95, -187500.02, -0.26, 0.45, 0.87
192, -66652.36, 120855.48, -95593.20, -90851.99, -187500.02, -143236.55, -176619.28, -187500.02, 0.00, 0.00, 0.00
193, -66629.48, 121006.93, -95571.90, -90832.14, -187500.02, -143217.69, -176604.95, -187500.02, 0.00, 0.00, 0.00
194, -66562.29, 121205.37, -95505.38, -90767.01, -187500.02, -143155.36, -176543.33, -187500.02, 0.00, 0.00, 0.00
195, -66558.93, 121029.80, -95501.85, -90762.88, -187500.02, -143156.86, -176538.31, -187500.02, 0.00, 0.00, 0.00
196, -66597.89, 120808.52, -95544.14, -90802.80, -187500.02, -143200.56, -176582.63, -187500.02, 0.00, 0.00, 0.00
197, -66593.94, 120952.23, -95541.88, -90800.07, -187500.02, -143200.56, -176586.80, -187500.02, 0.00, 0.00, 0.00
198, -66537.37, 121192.52, -95485.22, -90744.01, -187500.02, -143148.03, -176533.05, -187500.02, 0.00, 0.00, 0.00
199, -66588.84, 121069.13, -95537.43, -90795.63, -187500.02, -143201.78, -176584.09, -187500.02, 0.00, 0.00, 0.00
200, -66625.38, 120830.35, -95577.66, -90834.38, -187500.02, -143242.69, -176628.50, -187500.02, 0.00, 0.00, 0.00
201, -66570.51, 120892.91, -95526.48, -90786.03, -187500.02, -143193.41, -176580.39, -187500.02, -0.26, 0.44, 0.88
202, -66531.87, 121211.07, -95489.38, -90752.86, -187500.02, -143158.72, -176541.98, -187500.02, 0.00, 0.00, 0.00
203, -66614.19, 121147.86, -95572.75, -90836.19, -187500.02, -143244.06, -176631.44, -187500.02, 0.00, 0.00, 0.00
204, -66647.00, 120843.27, -95605.96, -90870.05, -187500.02, -143279.64, -176672.42, -187500.02, 0.00, 0.00, 0.00
205, -66579.90, 120802.66, -95538.46, -90804.70, -187500.02, -143217.23, -176610.16, -187500.02, 0.00, 0.00, 0.00
206, -66487.85, 121160.73, -95445.66, -90713.52, -187500.02, -143129.44, -176515.34, -187500.02, 0.00, 0.00, 0.00
207, -66565.86, 121191.91, -95521.23, -90788.96, -187500.02, -143209.30, -176593.30, -187500.02, 0.00, 0.00, 0.00
208, -66633.84, 120904.94, -95589.76, -90857.63, -187500.02, -143282.66, -176672.20, -187500.02, 0.00, 0.00, 0.00
209, -66622.32, 120828.63, -95580.77, -90849.71, -187500.02, -143279.08, -176670.80, -187500.02, 0.00, 0.00, 0.00
210, -66552.56, 121088.18, -95512.78, -90781.98, -187500.02, -143215.31, -176606.56, -187500.02, 0.00, 0.00, 0.00
211, -66513.65, 121187.94, -95473.22, -90744.30, -187500.02, -143181.61, -176566.45, -187500.02, -0.25, 0.44, 0.88
212, -66571.09, 120934.20, -95529.43, -90803.04, -187500.02, -143242.77, -176625.20, -187500.02, 0.00, 0.00, 0.00
213, -66580.95, 120801.74, -95540.05, -90815.29, -187500.02, -143258.06, -176645.06, -187500.02, 0.00, 0.00, 0.00
214, -66502.05, 121049.45, -95462.62, -90740.16, -187500.02, -143185.67, -176573.19, -187500.02, 0.00, 0.00, 0.00
215, -66534.88, 121257.20, -95494.34, -90774.84, -187500.02, -143222.23, -176606.88, -187500.02, 0.00, 0.00, 0.00
216, -66595.55, 120994.70, -95554.40, -90834.54, -187500.02, -143285.88, -176673.61, -187500.02, 0.00, 0.00, 0.00
217, -66614.37, 120797.88, -95571.97, -90852.33, -187500.02, -143307.11, -176700.13, -187500.02, 0.00, 0.00, 0.00
218, -66550.44, 120939.12, -95506.32, -90789.70, -187500.02, -143247.94, -176639.86, -187500.02, 0.00, 0.00, 0.00
219, -66504.04, 121207.60, -95459.02, -90744.15, -187500.02, -143205.88, -176589.86, -187500.02, 0.00, 0.00, 0.00
220, -66573.08, 121037.28, -95528.02, -90811.23, -187500.02, -143275.75, -176657.91, -187500.02, -0.24, 0.45, 0.88
221, -66589.38, 120791.21, -95542.84, -90827.05, -187500.02, -143294.75, -176681.39, -187500.02, 0.00, 0.00, 0.00
222, -66514.30, 120894.86, -95468.48, -90755.48, -187500.02, -143225.97, -176611.66, -187500.02, 0.00, 0.00, 0.00
223, -66515.57, 121188.47, -95469.93, -90757.65, -187500.02, -143233.45, -176612.69, -187500.02, 0.00, 0.00, 0.00
224, -66589.22, 121035.54, -95543.11, -90831.20, -187500.02, -143312.61, -176691.66, -187500.02, 0.00, 0.00, 0.00
225, -66617.34, 120761.09, -95573.64, -90861.96, -187500.02, -143345.83, -176730.03, -187500.02, 0.00, 0.00, 0.00
226, -66525.12, 120823.31, -95485.60, -90775.98, -187500.02, -143259.91, -176645.92, -187500.02, 0.00, 0.00, 0.00
227, -66468.92, 121166.05, -95430.37, -90721.64, -187500.02, -143208.61, -176588.94, -187500.02, 0.00, 0.00, 0.00
228, -66549.73, 121122.35, -95508.82, -90798.68, -187500.02, -143291.34, -176669.72, -187500.02, 0.00, 0.00, 0.00
229, -66610.86, 120885.13, -95568.95, -90858.54, -187500.02, -143354.56, -176737.14, -187500.02, 0.00, 0.00, 0.00
230, -66579.61, 120837.91, -95536.59, -90826.76, -187500.02, -143326.73, -176710.98, -187500.02, -0.24, 0.45, 0.88
231, -66503.19, 121150.43, -95455.94, -90749.53, -187500.02, -143254.05, -176632.67, -187500.02, 0.00, 0.00, 0.00
232, -66510.81, 121185.30, -95463.60, -90758.59, -187500.02, -143268.78, -176640.11, -187500.02, 0.00, 0.00, 0.00
233, -66565.52, 120942.11, -95521.27, -90815.52, -187500.02, -143329.97, -176704.19, -187500.02, 0.00, 0.00, 0.00
234, -66569.44, 120871.84, -95525.56, -90822.45, -187500.02, -143337.44, -176718.52, -187500.02, 0.00, 0.00, 0.00
235, -66537.97, 121183.78, -95492.86, -90793.95, -187500.02, -143310.23, -176694.69, -187500.02, 0.00, 0.00, 0.00
236, -66509.27, 121252.38, -95463.23, -90763.59, -187500.02, -143283.94, -176665.64, -187500.02, 0.00, 0.00, 0.00
237, -66554.17, 120990.41, -95506.95, -90807.06, -187500.02, -143332.92, -176712.06, -187500.02, 0.00, 0.00, 0.00
238, -66576.70, 120878.21, -95530.52, -90831.20, -187500.02, -143360.94, -176742.38, -187500.02, 0.00, 0.00, 0.00
239, -66507.26, 121122.09, -95461.30, -90765.67, -187500.02, -143297.56, -176679.45, -187500.02, 0.00, 0.00, 0.00
240, -66462.80, 121307.16, -95416.13, -90722.58, -187500.02, -143258.86, -176636.42, -187500.02, -0.23, 0.46, 0.87
241, -66545.52, 121092.16, -95500.26, -90803.51, -187500.02, -143343.83, -176723.28, -187500.02, 0.00, 0.00, 0.00
242, -66582.91, 120903.76, -95540.49, -90842.49, -187500.02, -143386.14, -176768.77, -187500.02, 0.00, 0.00, 0.00
243, -66517.25, 121052.64, -95474.38, -90780.02, -187500.02, -143326.84, -176708.02, -187500.02, 0.00, 0.00, 0.00
244, -66456.12, 121295.16, -95410.63, -90720.30, -187500.02, -143270.81, -176644.69, -187500.02, 0.00, 0.00, 0.00
245, -66519.30, 121111.90, -95471.54, -90781.18, -187500.02, -143338.61, -176709.27, -187500.02, 0.00, 0.00, 0.00
246, -66536.78, 120887.93, -95488.68, -90797.08, -187500.02, -143359.80, -176733.97, -187500.02, 0.00, 0.00, 0.00
247, -66484.79, 121018.45, -95436.70, -90746.05, -187500.02, -143311.52, -176687.41, -187500.02, 0.00, 0.00, 0.00
248, -66377.59, 121269.72, -95329.25, -90642.18, -187500.02, -143209.67, -176582.28, -187500.02, 0.00, 0.00, 0.00
249, -66401.63, 121195.38, -95352.90, -90665.29, -187500.02, -143237.58, -176604.34, -187500.02, 0.00, 0.00, 0.00
250, -66463.27, 120930.45, -95414.92, -90725.02, -187500.02, -143302.81, -176672.50, -187500.02, -0.23, 0.46, 0.87
251, -66420.06, 120939.49, -95372.52, -90683.35, -187500.02, -143266.45, -176636.78, -187500.02, 0.00, 0.00, 0.00
252, -66367.13, 121242.83, -95318.70, -90631.00, -187500.02, -143218.81, -176584.75, -187500.02, 0.00, 0.00, 0.00
253, -66442.16, 121161.34, -95391.85, -90704.54, -187500.02, -143296.73, -176659.20, -187500.02, 0.00, 0.00, 0.00
254, -66505.22, 120807.22, -95455.16, -90767.73, -187500.02, -143365.48, -176729.19, -187500.02, 0.00, 0.00, 0.00
255, -66507.61, 120715.60, -95459.67, -90772.95, -187500.02, -143375.17, -176739.02, -187500.02, 0.00, 0.00, 0.00
0, -66458.75, 120855.63, -95409.91, -90726.53, -187500.02, -143332.75, -176695.19, -187500.02, 0.00, 0.00, 0.00
1, -66412.08, 120795.88, -95359.60, -90677.88, -187500.02, -143288.94, -176643.91, -187500.02, 0.00, 0.00, 0.00
2, -66483.16, 120598.48, -95429.36, -90745.66, -187500.02, -143361.56, -176714.39, -187500.02, 0.00, 0.00, 0.00
3, -66505.16, 120453.05, -95450.69, -90767.05, -187500.02, -143385.34, -176741.94, -187500.02, -0.23, 0.46, 0.87
4, -66433.95, 120809.01, -95376.05, -90696.49, -187500.02, -143318.47, -176675.30, -187500.02, 0.00, 0.00, 0.00
5, -66353.52, 121128.30, -95292.23, -90616.31, -187500.02, -143242.36, -176596.75, -187500.02, 0.00, 0.00, 0.00
6, -66381.57, 121145.52, -95320.82, -90645.15, -187500.02, -143273.63, -176622.34, -187500.02, 0.00, 0.00, 0.00
7, -66417.58, 121063.73, -95355.31, -90681.38, -187500.02, -143312.47, -176659.11, -187500.02, 0.00, 0.00, 0.00
8, -66320.33, 121276.94, -95255.69, -90584.87, -187500.02, -143219.11, -176562.55, -187500.02, 0.00, 0.00, 0.00
9, -66345.70, 121423.50, -95278.69, -90607.84, -187500.02, -143247.55, -176589.23, -187500.02, 0.00, 0.00, 0.00
10, -66405.17, 121137.82, -95338.32, -90667.52, -187500.02, -143310.78, -176658.34, -187500.02, 0.00, 0.00, 0.00
11, -66415.05, 120932.73, -95348.98, -90679.48, -187500.02, -143324.34, -176677.14, -187500.02, 0.00, 0.00, 0.00
12, -66368.74, 121070.25, -95300.77, -90634.40, -187500.02, -143280.98, -176633.02, -187500.02, 0.00, 0.00, 0.00
13, -66301.95, 121292.95, -95231.34, -90568.13, -187500.02, -143217.28, -176562.69, -187500.02, -0.23, 0.46, 0.87
14, -66356.38, 121113.66, -95280.43, -90618.41, -187500.02, -143272.83, -176613.36, -187500.02, 0.00, 0.00, 0.00
15, -66394.23, 120907.87, -95314.52, -90653.40, -187500.02, -143314.06, -176655.83, -187500.02, 0.00, 0.00, 0.00
16, -66374.04, 121024.25, -95291.72, -90633.41, -187500.02, -143299.02, -176640.42, -187500.02, 0.00, 0.00, 0.00
17, -66348.78, 121274.37, -95264.54, -90607.40, -187500.02, -143277.34, -176620.28, -187500.02, 0.00, 0.00, 0.00
18, -66367.29, 121202.27, -95279.91, -90624.45, -187500.02, -143300.20, -176639.22, -187500.02, 0.00, 0.00, 0.00
19, -66420.42, 120948.95, -95330.16, -90675.73, -187500.02, -143357.95, -176697.00, -187500.02, 0.00, 0.00, 0.00
20, -66381.30, 120942.58, -95288.61, -90635.94, -187500.02, -143323.30, -176663.67, -187500.02, 0.00, 0.00, 0.00
21, -66296.23, 121232.64, -95199.59, -90550.18, -187500.02, -143242.22, -176576.23, -187500.02, 0.00, 0.00, 0.00
22, -66374.28, 121223.56, -95275.54, -90625.46, -187500.02, -143323.88, -176653.86, -187500.02, 0.00, 0.00, 0.00
23, -66399.88, 120926.66, -95299.30, -90650.45, -187500.02, -143354.55, -176687.03, -187500.02, -0.23, 0.46, 0.87
24, -66336.40, 120883.44, -95233.00, -90588.20, -187500.02, -143296.25, -176629.52, -187500.02, 0.00, 0.00, 0.00
25, -66249.70, 121198.09, -95144.58, -90503.33, -187500.02, -143214.27, -176541.47, -187500.02, 0.00, 0.00, 0.00
26, -66323.70, 121258.86, -95214.72, -90576.17, -187500.02, -143291.53, -176615.23, -187500.02, 0.00, 0.00, 0.00
27, -66381.10, 120949.20, -95267.94, -90632.43, -187500.02, -143352.94, -176678.52, -187500.02, 0.00, 0.00, 0.00
28, -66325.88, 120862.78, -95211.14, -90578.25, -187500.02, -143304.47, -176630.59, -187500.02, 0.00, 0.00, 0.00
29, -66248.27, 121170.55, -95132.58, -90504.00, -187500.02, -143234.89, -176556.64, -187500.02, 0.00, 0.00, 0.00
30, -66271.69, 121292.38, -95151.24, -90527.22, -187500.02, -143263.61, -176577.80, -187500.02, 0.00, 0.00, 0.00
31, -66304.37, 120997.34, -95179.20, -90559.63, -187500.02, -143298.64, -176614.00, -187500.02, 0.00, 0.00, 0.00
32, -66254.41, 120852.64, -95127.95, -90513.27, -187500.02, -143253.59, -176568.66, -187500.02, 0.00, 0.00, 0.00
33, -66238.59, 121086.68, -95108.08, -90497.31, -187500.02, -143242.25, -176552.64, -187500.02, -0.23, 0.46, 0.87
34, -66204.79, 121224.01, -95069.86, -90464.13, -187500.02, -143214.58, -176524.33, -187500.02, 0.00, 0.00, 0.00
35, -66241.83, 121050.65, -95102.84, -90499.48, -187500.02, -143254.69, -176562.75, -187500.02, 0.00, 0.00, 0.00
36, -66313.31, 120869.53, -95172.54, -90569.53, -187500.02, -143328.30, -176640.00, -187500.02, 0.00, 0.00, 0.00
37, -66227.08, 121017.50, -95083.47, -90483.86, -187500.02, -143247.20, -176561.28, -187500.02, 0.00, 0.00, 0.00
38, -66144.76, 121262.59, -94998.48, -90402.45, -187500.02, -143169.11, -176479.17, -187500.02, 0.00, 0.00, 0.00
39, -66225.45, 121121.55, -95076.16, -90481.94, -187500.02, -143250.11, -176558.17, -187500.02, 0.00, 0.00, 0.00
40, -66278.38, 120835.67, -95126.72, -90534.58, -187500.02, -143306.95, -176615.36, -187500.02, 0.00, 0.00, 0.00
41, -66208.66, 120917.79, -95053.38, -90466.63, -187500.02, -143243.81, -176547.97, -187500.02, 0.00, 0.00, 0.00
42, -66186.77, 121234.78, -95027.52, -90443.07, -187500.02, -143225.59, -176523.03, -187500.02, -0.23, 0.46, 0.87
43, -66287.02, 121104.95, -95126.27, -90538.73, -187500.02, -143328.23, -176626.88, -187500.02, 0.00, 0.00, 0.00
44, -66270.46, 120814.28, -95110.07, -90522.46, -187500.02, -143317.03, -176618.83, -187500.02, 0.00, 0.00, 0.00
45, -66179.47, 120852.70, -95017.62, -90433.77, -187500.02, -143230.95, -176530.70, -187500.02, 0.00, 0.00, 0.00
46, -66175.22, 121186.88, -95010.87, -90428.49, -187500.02, -143229.50, -176523.70, -187500.02, 0.00, 0.00, 0.00
47, -66235.05, 121103.22, -95065.25, -90485.85, -187500.02, -143292.05, -176587.30, -187500.02, 0.00, 0.00, 0.00
48, -66263.33, 120832.05, -95090.98, -90515.11, -187500.02, -143325.02, -176621.78, -187500.02, 0.00, 0.00, 0.00
49, -66232.15, 120796.49, -95058.52, -90482.72, -187500.02, -143299.17, -176595.06, -187500.02, 0.00, 0.00, 0.00
50, -66131.73, 121081.95, -94955.03, -90381.66, -187500.02, -143204.50, -176492.47, -187500.02, 0.00, 0.00, 0.00
51, -66153.72, 121115.34, -94971.84, -90400.66, -187500.02, -143227.33, -176507.55, -187500.02, 0.00, 0.00, 0.00
52, -66204.55, 120829.80, -95020.01, -90447.98, -187500.02, -143279.50, -176560.41, -187500.02, -0.24, 0.45, 0.87
53, -66188.68, 120725.37, -95002.71, -90434.30, -187500.02, -143269.41, -176550.55, -187500.02, 0.00, 0.00, 0.00
54, -66090.66, 120986.95, -94902.66, -90339.55, -187500.02, -143178.20, -176456.06, -187500.02, 0.00, 0.00, 0.00
55, -66020.91, 121112.55, -94830.98, -90269.75, -187500.02, -143114.02, -176383.17, -187500.02, 0.00, 0.00, 0.00
56, -66103.31, 120935.43, -94908.63, -90348.41, -187500.02, -143198.09, -176464.56, -187500.02, 0.00, 0.00, 0.00
57, -66166.91, 120770.54, -94967.77, -90409.72, -187500.02, -143264.16, -176532.23, -187500.02, 0.00, 0.00, 0.00
58, -66096.41, 120968.17, -94895.83, -90341.57, -187500.02, -143199.03, -176465.58, -187500.02, 0.00, 0.00, 0.00
59, -66020.84, 121150.81, -94816.92, -90265.53, -187500.02, -143127.38, -176387.25, -187500.02, 0.00, 0.00, 0.00
60, -66116.59, 120967.30, -94908.66, -90358.11, -187500.02, -143224.14, -176480.36, -187500.02, 0.00, 0.00, 0.00
61, -66120.01, 120769.02, -94909.86, -90360.21, -187500.02, -143231.58, -176487.13, -187500.02, 0.00, 0.00, 0.00
62, -66055.35, 120935.85, -94842.27, -90295.75, -187500.02, -143171.03, -176426.02, -187500.02, -0.24, 0.46, 0.88
63, -65999.24, 121214.38, -94781.43, -90237.21, -187500.02, -143116.63, -176367.22, -187500.02, 0.00, 0.00, 0.00
64, -66051.57, 121047.21, -94830.24, -90284.37, -187500.02, -143170.36, -176418.80, -187500.02, 0.00, 0.00, 0.00
65, -66106.78, 120816.94, -94881.37, -90337.86, -187500.02, -143228.72, -176479.06, -187500.02, 0.00, 0.00, 0.00
66, -66058.48, 120896.42, -94831.09, -90292.87, -187500.02, -143185.84, -176436.44, -187500.02, 0.00, 0.00, 0.00
67, -65962.21, 121189.43, -94731.41, -90197.42, -187500.02, -143094.23, -176335.00, -187500.02, 0.00, 0.00, 0.00
68, -66044.02, 121135.97, -94809.15, -90276.70, -187500.02, -143177.56, -176411.30, -187500.02, 0.00, 0.00, 0.00
69, -66093.37, 120913.84, -94854.97, -90325.20, -187500.02, -143230.28, -176463.70, -187500.02, 0.00, 0.00, 0.00
70, -66087.53, 120977.98, -94846.67, -90319.06, -187500.02, -143227.36, -176462.91, -187500.02, 0.00, 0.00, 0.00
71, -66026.41, 121285.91, -94781.36, -90257.91, -187500.02, -143171.28, -176402.44, -187500.02, 0.00, 0.00, 0.00
72, -66045.73, 121229.17, -94794.28, -90273.98, -187500.02, -143191.70, -176417.31, -187500.02, -0.24, 0.46, 0.87
73, -66046.43, 120940.13, -94792.36, -90274.29, -187500.02, -143196.22, -176421.08, -187500.02, 0.00, 0.00, 0.00
74, -66051.05, 120975.66, -94795.45, -90280.44, -187500.02, -143205.77, -176430.19, -187500.02, 0.00, 0.00, 0.00
75, -65990.57, 121244.48, -94730.60, -90220.42, -187500.02, -143148.28, -176368.31, -187500.02, 0.00, 0.00, 0.00
76, -65994.35, 121291.94, -94729.26, -90219.64, -187500.02, -143153.83, -176364.89, -187500.02, 0.00, 0.00, 0.00
77, -66043.50, 121020.86, -94775.55, -90264.86, -187500.02, -143205.19, -176415.14, -187500.02, 0.00, 0.00, 0.00
78, -66022.36, 120949.55, -94751.79, -90244.49, -187500.02, -143187.75, -176397.66, -187500.02, 0.00, 0.00, 0.00
79, -65926.34, 121195.00, -94651.63, -90150.70, -187500.02, -143097.47, -176299.64, -187500.02, 0.00, 0.00, 0.00
80, -65931.32, 121354.23, -94650.83, -90154.10, -187500.02, -143105.52, -176299.17, -187500.02, 0.00, 0.00, 0.00
81, -65970.92, 121099.91, -94685.20, -90189.91, -187500.02, -143147.98, -176340.28, -187500.02, -0.24, 0.46, 0.87
82, -65928.57, 120940.21, -94638.91, -90145.63, -187500.02, -143109.30, -176300.42, -187500.02, 0.00, 0.00, 0.00
83, -65829.71, 121124.01, -94538.13, -90047.71, -187500.02, -143014.17, -176196.27, -187500.02, 0.00, 0.00, 0.00
84, -65867.59, 121348.51, -94571.21, -90082.94, -187500.02, -143053.38, -176227.56, -187500.02, 0.00, 0.00, 0.00
85, -65941.13, 121137.84, -94641.95, -90154.46, -187500.02, -143130.31, -176305.19, -187500.02, 0.00, 0.00, 0.00
86, -65939.59, 120964.20, -94638.71, -90152.61, -187500.02, -143132.52, -176309.75, -187500.02, 0.00, 0.00, 0.00
87, -65909.50, 121107.78, -94606.23, -90124.06, -187500.02, -143107.03, -176284.25, -187500.02, 0.00, 0.00, 0.00
88, -65858.27, 121309.80, -94552.93, -90073.98, -187500.02, -143060.80, -176232.86, -187500.02, 0.00, 0.00, 0.00
89, -65862.27, 121186.59, -94553.42, -90073.99, -187500.02, -143066.67, -176229.17, -187500.02, 0.00, 0.00, 0.00
90, -65909.46, 120963.34, -94598.88, -90119.08, -187500.02, -143115.08, -176278.92, -187500.02, 0.00, 0.00, 0.00
91, -65838.72, 121023.18, -94528.01, -90050.73, -187500.02, -143048.52, -176213.14, -187500.02, -0.23, 0.46, 0.87
92, -65778.57, 121321.06, -94464.68, -89989.82, -187500.02, -142990.59, -176148.77, -187500.02, 0.00, 0.00, 0.00
93, -65857.53, 121251.93, -94541.05, -90067.05, -187500.02, -143071.20, -176227.36, -187500.02, 0.00, 0.00, 0.00
94, -65906.04, 120981.98, -94586.08, -90113.71, -187500.02, -143120.81, -176280.36, -187500.02, 0.00, 0.00, 0.00
95, -65835.36, 121006.20, -94512.18, -90042.93, -187500.02, -143052.33, -176210.34, -187500.02, 0.00, 0.00, 0.00
96, -65800.67, 121336.91, -94474.56, -90007.25, -187500.02, -143019.98, -176171.81, -187500.02, 0.00, 0.00, 0.00
97, -65834.36, 121285.77, -94503.42, -90038.73, -187500.02, -143055.31, -176208.20, -187500.02, 0.00, 0.00, 0.00
98, -65850.05, 121005.84, -94516.23, -90055.82, -187500.02, -143074.83, -176230.52, -187500.02, 0.00, 0.00, 0.00
99, -65823.18, 120962.23, -94488.46, -90030.19, -187500.02, -143051.39, -176204.23, -187500.02, 0.00, 0.00, 0.00
100, -65794.81, 121270.86, -94455.67, -89998.91, -187500.02, -143024.92, -176168.89, -187500.02, 0.00, 0.00, 0.00
101, -65793.52, 121277.05, -94448.09, -89995.41, -187500.02, -143025.44, -176168.08, -187500.02, -0.23, 0.46, 0.87
102, -65769.09, 121031.14, -94418.99, -89971.73, -187500.02, -143003.48, -176139.61, -187500.02, 0.00, 0.00, 0.00
103, -65815.20, 120979.64, -94461.95, -90016.55, -187500.02, -143051.20, -176179.14, -187500.02, 0.00, 0.00, 0.00
104, -65821.33, 121235.43, -94465.82, -90021.65, -187500.02, -143058.52, -176187.91, -187500.02, 0.00, 0.00, 0.00
105, -65793.20, 121300.03, -94434.04, -89993.26, -187500.02, -143031.69, -176162.70, -187500.02, 0.00, 0.00, 0.00
106, -65731.67, 121029.30, -94371.34, -89932.82, -187500.02, -142975.03, -176100.16, -187500.02, 0.00, 0.00, 0.00
107, -65771.15, 120976.06, -94410.32, -89970.95, -187500.02, -143018.73, -176133.50, -187500.02, 0.00, 0.00, 0.00
108, -65776.82, 121168.60, -94414.15, -89975.42, -187500.02, -143026.89, -176139.00, -187500.02, 0.00, 0.00, 0.00
109, -65744.37, 121295.60, -94378.41, -89941.92, -187500.02, -142995.55, -176110.08, -187500.02, 0.00, 0.00, 0.00
110, -65703.55, 121062.09, -94333.79, -89898.73, -187500.02, -142954.31, -176067.81, -187500.02, -0.23, 0.46, 0.87
111, -65731.36, 120909.39, -94358.69, -89925.18, -187500.02, -142981.13, -176089.03, -187500.02, 0.00, 0.00, 0.00
112, -65742.52, 121083.95, -94367.34, -89938.25, -187500.02, -142994.13, -176102.11, -187500.02, 0.00, 0.00, 0.00
113, -65731.31, 121307.07, -94353.88, -89928.58, -187500.02, -142984.47, -176096.56, -187500.02, 0.00, 0.00, 0.00
114, -65709.59, 121110.87, -94329.84, -89907.23, -187500.02, -142963.92, -176075.91, -187500.02, 0.00, 0.00, 0.00
115, -65731.83, 120930.45, -94348.99, -89927.75, -187500.02, -142986.98, -176090.56, -187500.02, 0.00, 0.00, 0.00
116, -65764.10, 121028.92, -94377.78, -89956.76, -187500.02, -143019.47, -176120.30, -187500.02, 0.00, 0.00, 0.00
117, -65737.62, 121331.59, -94347.96, -89929.94, -187500.02, -142995.03, -176099.39, -187500.02, 0.00, 0.00, 0.00
118, -65720.63, 121205.91, -94327.40, -89913.51, -187500.02, -142981.36, -176084.38, -187500.02, 0.00, 0.00, 0.00
119, -65710.02, 120968.84, -94314.86, -89902.00, -187500.02, -142973.69, -176067.34, -187500.02, 0.00, 0.00, 0.00
120, -65750.60, 121058.34, -94354.29, -89940.38, -187500.02, -143014.66, -176105.56, -187500.02, -0.24, 0.46, 0.87
121, -65706.02, 121330.52, -94307.05, -89894.84, -187500.02, -142972.84, -176064.11, -187500.02, 0.00, 0.00, 0.00
122, -65639.90, 121304.68, -94237.99, -89828.71, -187500.02, -142912.78, -175998.80, -187500.02, 0.00, 0.00, 0.00
123, -65691.06, 121089.14, -94287.79, -89878.80, -187500.02, -142966.63, -176047.66, -187500.02, 0.00, 0.00, 0.00
124, -65699.62, 121053.80, -94295.57, -89887.80, -187500.02, -142977.22, -176058.81, -187500.02, 0.00, 0.00, 0.00
125, -65614.77, 121341.89, -94207.30, -89805.10, -187500.02, -142896.39, -175973.88, -187500.02, 0.00, 0.00, 0.00
126, -65636.37, 121385.39, -94223.82, -89824.86, -187500.02, -142918.80, -175987.75, -187500.02, 0.00, 0.00, 0.00
127, -65692.02, 121107.18, -94278.27, -89878.30, -187500.02, -142976.95, -176043.34, -187500.02, 0.00, 0.00, 0.00
128, -65674.30, 121013.97, -94259.60, -89861.99, -187500.02, -142963.39, -176029.84, -187500.02, 0.00, 0.00, 0.00
129, -65596.49, 121283.49, -94179.83, -89785.86, -187500.02, -142890.58, -175949.22, -187500.02, 0.00, 0.00, 0.00
130, -65597.05, 121433.65, -94176.81, -89785.30, -187500.02, -142892.63, -175942.20, -187500.02, -0.25, 0.46, 0.87
131, -65686.43, 121191.73, -94263.14, -89871.98, -187500.02, -142982.25, -176032.41, -187500.02, 0.00, 0.00, 0.00
132, -65675.50, 121032.59, -94250.38, -89860.85, -187500.02, -142972.39, -176024.78, -187500.02, 0.00, 0.00, 0.00
133, -65630.40, 121265.83, -94205.16, -89818.07, -187500.02, -142930.58, -175982.81, -187500.02, 0.00, 0.00, 0.00
134, -65585.76, 121442.39, -94155.63, -89771.62, -187500.02, -142888.84, -175933.92, -187500.02, 0.00, 0.00, 0.00
135, -65661.17, 121231.43, -94228.45, -89845.16, -187500.02, -142965.47, -176006.33, -187500.02, 0.00, 0.00, 0.00
136, -65674.16, 121059.93, -94244.05, -89861.92, -187500.02, -142983.05, -176026.94, -187500.02, 0.00, 0.00, 0.00
137, -65644.39, 121234.80, -94215.57, -89834.97, -187500.02, -142957.30, -176003.91, -187500.02, 0.00, 0.00, 0.00
138, -65534.04, 121384.92, -94103.63, -89725.91, -187500.02, -142849.03, -175892.83, -187500.02, 0.00, 0.00, 0.00
139, -65532.99, 121236.48, -94099.50, -89723.74, -187500.02, -142848.73, -175885.42, -187500.02, 0.00, 0.00, 0.00
140, -65614.20, 121009.19, -94177.53, -89803.80, -187500.02, -142932.00, -175968.80, -187500.02, -0.24, 0.46, 0.86
141, -65571.77, 121007.02, -94131.93, -89761.30, -187500.02, -142891.34, -175927.56, -187500.02, 0.00, 0.00, 0.00
142, -65498.63, 121206.76, -94055.47, -89686.64, -187500.02, -142819.91, -175849.23, -187500.02, 0.00, 0.00, 0.00
143, -65615.66, 121029.02, -94168.92, -89800.19, -187500.02, -142936.63, -175964.61, -187500.02, 0.00, 0.00, 0.00
144, -65631.47, 120647.23, -94183.12, -89817.11, -187500.02, -142956.88, -175985.50, -187500.02, 0.00, 0.00, 0.00
145, -65605.59, 120637.01, -94156.25, -89793.03, -187500.02, -142935.31, -175963.92, -187500.02, 0.00, 0.00, 0.00
146, -65520.47, 120868.02, -94068.52, -89708.90, -187500.02, -142852.77, -175875.23, -187500.02, 0.00, 0.00, 0.00
147, -65539.49, 120966.88, -94084.81, -89725.58, -187500.02, -142871.97, -175886.47, -187500.02, 0.00, 0.00, 0.00
148, -65576.62, 120937.75, -94120.38, -89762.68, -187500.02, -142911.50, -175924.81, -187500.02, 0.00, 0.00, 0.00
149, -65509.30, 121062.77, -94051.69, -89698.66, -187500.02, -142849.13, -175861.83, -187500.02, -0.24, 0.46, 0.86
150, -65387.55, 121435.21, -93928.98, -89580.83, -187500.02, -142732.83, -175739.17, -187500.02, 0.00, 0.00, 0.00
151, -65393.47, 121522.85, -93931.73, -89584.80, -187500.02, -142739.78, -175738.66, -187500.02, 0.00, 0.00, 0.00
152, -65508.80, 121246.19, -94044.05, -89697.48, -187500.02, -142854.28, -175854.22, -187500.02, 0.00, 0.00, 0.00
153, -65507.71, 121086.59, -94042.10, -89698.80, -187500.02, -142854.83, -175856.83, -187500.02, 0.00, 0.00, 0.00
154, -65435.47, 121305.62, -93968.48, -89631.01, -187500.02, -142786.16, -175787.97, -187500.02, 0.00, 0.00, 0.00
155, -65411.62, 121419.57, -93943.41, -89609.39, -187500.02, -142765.45, -175760.36, -187500.02, 0.00, 0.00, 0.00
156, -65479.01, 121188.77, -94009.09, -89674.55, -187500.02, -142834.23, -175825.91, -187500.02, 0.00, 0.00, 0.00
157, -65485.40, 121024.16, -94013.53, -89679.55, -187500.02, -142841.77, -175836.16, -187500.02, 0.00, 0.00, 0.00
158, -65405.96, 121229.04, -93929.56, -89599.11, -187500.02, -142762.39, -175754.39, -187500.02, 0.00, 0.00, 0.00
159, -65397.29, 121431.55, -93916.41, -89590.66, -187500.02, -142754.38, -175738.38, -187500.02, -0.24, 0.46, 0.86
160, -65467.79, 121210.06, -93984.01, -89661.07, -187500.02, -142825.77, -175811.66, -187500.02, 0.00, 0.00, 0.00
161, -65476.89, 121003.53, -93991.30, -89671.26, -187500.02, -142836.50, -175826.55, -187500.02, 0.00, 0.00, 0.00
162, -65444.36, 121167.22, -93957.05, -89639.12, -187500.02, -142803.86, -175792.86, -187500.02, 0.00, 0.00, 0.00
163, -65397.18, 121413.84, -93907.09, -89590.84, -187500.02, -142757.08, -175738.23, -187500.02, 0.00, 0.00, 0.00
164, -65438.37, 121233.49, -93945.52, -89630.54, -187500.02, -142798.72, -175776.73, -187500.02, 0.00, 0.00, 0.00
165, -65494.77, 121040.77, -94000.86, -89685.92, -187500.02, -142856.36, -175838.28, -187500.02, 0.00, 0.00, 0.00
166, -65499.13, 121135.70, -94002.80, -89690.95, -187500.02, -142862.84, -175845.92, -187500.02, 0.00, 0.00, 0.00
167, -65387.43, 121351.82, -93887.34, -89580.13, -187500.02, -142754.66, -175729.88, -187500.02, 0.00, 0.00, 0.00
168, -65382.29, 121289.97, -93880.54, -89574.63, -187500.02, -142752.11, -175714.09, -187500.02, 0.00, 0.00, 0.00
169, -65446.78, 121052.44, -93944.55, -89637.45, -187500.02, -142818.13, -175775.44, -187500.02, -0.24, 0.46, 0.86
170, -65410.34, 121044.70, -93906.02, -89602.44, -187500.02, -142782.58, -175740.63, -187500.02, 0.00, 0.00, 0.00
171, -65319.08, 121345.54, -93811.70, -89514.11, -187500.02, -142692.14, -175646.03, -187500.02, 0.00, 0.00, 0.00
172, -65353.30, 121321.73, -93842.61, -89547.41, -187500.02, -142726.08, -175671.61, -187500.02, 0.00, 0.00, 0.00
173, -65412.04, 121054.23, -93902.34, -89607.49, -187500.02, -142786.73, -175732.56, -187500.02, 0.00, 0.00, 0.00
174, -65359.54, 120968.87, -93850.93, -89559.80, -187500.02, -142739.08, -175684.59, -187500.02, 0.00, 0.00, 0.00
175, -65310.72, 121332.17, -93801.53, -89514.40, -187500.02, -142693.75, -175632.80, -187500.02, 0.00, 0.00, 0.00
176, -65358.82, 121389.23, -93846.75, -89560.95, -187500.02, -142743.28, -175675.70, -187500.02, 0.00, 0.00, 0.00
177, -65419.33, 121097.68, -93905.46, -89621.08, -187500.02, -142805.53, -175740.63, -187500.02, 0.00, 0.00, 0.00
178, -65400.71, 120959.68, -93886.45, -89605.03, -187500.02, -142788.13, -175726.22, -187500.02, 0.00, 0.00, 0.00
179, -65265.28, 121191.89, -93749.25, -89473.70, -187500.02, -142654.69, -175588.33, -187500.02, -0.24, 0.46, 0.87
180, -65249.57, 121363.82, -93730.65, -89458.80, -187500.02, -142637.77, -175563.05, -187500.02, 0.00, 0.00, 0.00
181, -65355.54, 121120.81, -93835.62, -89564.60, -187500.02, -142742.23, -175667.30, -187500.02, 0.00, 0.00, 0.00
182, -65356.25, 120955.48, -93837.09, -89568.00, -187500.02, -142744.03, -175670.94, -187500.02, 0.00, 0.00, 0.00
183, -65341.86, 121182.57, -93822.78, -89557.05, -187500.02, -142731.95, -175657.55, -187500.02, 0.00, 0.00, 0.00
184, -65251.94, 121315.52, -93730.38, -89468.46, -187500.02, -142644.17, -175564.66, -187500.02, 0.00, 0.00, 0.00
185, -65263.43, 121147.99, -93741.58, -89479.64, -187500.02, -142656.63, -175567.11, -187500.02, 0.00, 0.00, 0.00
186, -65366.20, 120949.45, -93846.08, -89583.20, -187500.02, -142759.52, -175666.91, -187500.02, 0.00, 0.00, 0.00
187, -65368.28, 121051.77, -93848.84, -89587.55, -187500.02, -142763.63, -175670.67, -187500.02, 0.00, 0.00, 0.00
188, -65261.08, 121277.79, -93737.65, -89480.20, -187500.02, -142656.50, -175558.95, -187500.02, -0.23, 0.46, 0.88
189, -65267.29, 121151.68, -93742.12, -89484.02, -187500.02, -142660.88, -175556.27, -187500.02, 0.00, 0.00, 0.00
190, -65351.52, 120931.29, -93826.72, -89566.99, -187500.02, -142744.06, -175640.42, -187500.02, 0.00, 0.00, 0.00
191, -65356.30, 120985.18, -93831.68, -89573.59, -187500.02, -142749.98, -175647.17, -187500.02, 0.00, 0.00, 0.00
192, -65293.22, 121238.56, -93768.98, -89512.85, -187500.02, -142687.09, -175583.98, -187500.02, 0.00, 0.00, 0.00
193, -65254.73, 121150.02, -93729.49, -89473.49, -187500.02, -142647.39, -175535.55, -187500.02, 0.00, 0.00, 0.00
194, -65327.73, 120935.14, -93802.18, -89545.27, -187500.02, -142717.42, -175601.83, -187500.02, 0.00, 0.00, 0.00
195, -65312.89, 120919.23, -93788.72, -89533.13, -187500.02, -142702.81, -175587.23, -187500.02, 0.00, 0.00, 0.00
196, -65257.17, 121213.98, -93733.13, -89478.92, -187500.02, -142647.52, -175527.55, -187500.02, 0.00, 0.00, 0.00
197, -65258.80, 121180.67, -93732.80, -89478.37, -187500.02, -142646.39, -175516.52, -187500.02, 0.00, 0.00, 0.00
198, -65333.45, 120923.60, -93806.89, -89551.26, -187500.02, -142715.97, -175585.16, -187500.02, -0.22, 0.47, 0.87
199, -65330.86, 120882.56, -93804.59, -89552.26, -187500.02, -142712.69, -175582.16, -187500.02, 0.00, 0.00, 0.00
200, -65296.39, 121160.78, -93768.94, -89520.99, -187500.02, -142677.58, -175546.97, -187500.02, 0.00, 0.00, 0.00
201, -65224.82, 121199.78, -93694.46, -89448.86, -187500.02, -142604.73, -175468.03, -187500.02, 0.00, 0.00, 0.00
202, -65279.12, 120968.04, -93750.45, -89500.80, -187500.02, -142656.50, -175512.13, -187500.02, 0.00, 0.00, 0.00
203, -65311.68, 120868.38, -93785.19, -89533.11, -187500.02, -142686.02, -175540.11, -187500.02, 0.00, 0.00, 0.00
204, -65242.41, 121118.24, -93716.57, -89465.58, -187500.02, -142614.92, -175466.70, -187500.02, 0.00, 0.00, 0.00
205, -65182.76, 121283.78, -93657.27, -89407.51, -187500.02, -142555.38, -175398.45, -187500.02, 0.00, 0.00, 0.00
206, -65274.00, 121055.99, -93749.80, -89497.59, -187500.02, -142645.83, -175485.23, -187500.02, 0.00, 0.00, 0.00
207, -65271.72, 120886.92, -93749.85, -89497.43, -187500.02, -142644.78, -175483.45, -187500.02, 0.00, 0.00, 0.00
208, -65224.64, 121116.48, -93704.08, -89455.23, -187500.02, -142598.25, -175433.83, -187500.02, -0.23, 0.45, 0.87
209, -65164.65, 121312.39, -93643.68, -89396.88, -187500.02, -142536.36, -175363.53, -187500.02, 0.00, 0.00, 0.00
210, -65189.33, 121150.90, -93666.52, -89419.63, -187500.02, -142555.55, -175375.30, -187500.02, 0.00, 0.00, 0.00
211, -65269.02, 120967.55, -93745.76, -89495.95, -187500.02, -142628.84, -175447.91, -187500.02, 0.00, 0.00, 0.00
212, -65257.75, 121124.91, -93734.92, -89483.28, -187500.02, -142614.70, -175431.69, -187500.02, 0.00, 0.00, 0.00
213, -65219.46, 121396.14, -93695.00, -89443.61, -187500.02, -142572.97, -175387.36, -187500.02, 0.00, 0.00, 0.00
214, -65155.22, 121228.62, -93627.45, -89377.23, -187500.02, -142504.48, -175309.95, -187500.02, 0.00, 0.00, 0.00
215, -65180.12, 121050.25, -93650.07, -89400.65, -187500.02, -142522.97, -175317.56, -187500.02, 0.00, 0.00, 0.00
216, -65204.55, 121120.95, -93671.64, -89424.12, -187500.02, -142542.20, -175332.98, -187500.02, 0.00, 0.00, 0.00
217, -65123.35, 121404.86, -93588.47, -89344.30, -187500.02, -142460.30, -175243.95, -187500.02, -0.24, 0.44, 0.88
218, -65161.97, 121345.70, -93625.28, -89380.53, -187500.02, -142495.86, -175268.98, -187500.02, 0.00, 0.00, 0.00
219, -65227.95, 121075.88, -93690.87, -89443.88, -187500.02, -142557.13, -175328.89, -187500.02, 0.00, 0.00, 0.00
220, -65216.71, 121089.70, -93678.57, -89430.55, -187500.02, -142544.17, -175313.64, -187500.02, 0.00, 0.00, 0.00
221, -65140.98, 121362.88, -93599.63, -89353.13, -187500.02, -142465.81, -175229.27, -187500.02, 0.00, 0.00, 0.00
222, -65175.52, 121418.52, -93630.96, -89382.34, -187500.02, -142493.58, -175248.80, -187500.02, 0.00, 0.00, 0.00
223, -65251.80, 121164.69, -93707.14, -89456.06, -187500.02, -142566.44, -175319.41, -187500.02, 0.00, 0.00, 0.00
224, -65248.43, 121072.76, -93703.59, -89452.86, -187500.02, -142561.92, -175312.27, -187500.02, 0.00, 0.00, 0.00
225, -65139.87, 121342.03, -93593.39, -89345.98, -187500.02, -142452.06, -175194.73, -187500.02, 0.00, 0.00, 0.00
226, -65140.04, 121398.22, -93591.13, -89343.97, -187500.02, -142449.45, -175182.28, -187500.02, 0.00, 0.00, 0.00
227, -65163.40, 121120.59, -93612.88, -89364.82, -187500.02, -142470.66, -175201.33, -187500.02, -0.23, 0.45, 0.89
228, -65125.96, 121014.89, -93576.05, -89328.14, -187500.02, -142432.22, -175158.34, -187500.02, 0.00, 0.00, 0.00
229, -65058.01, 121320.59, -93507.40, -89260.82, -187500.02, -142362.06, -175075.11, -187500.02, 0.00, 0.00, 0.00
230, -65101.58, 121467.78, -93548.69, -89299.82, -187500.02, -142400.92, -175106.11, -187500.02, 0.00, 0.00, 0.00
231, -65141.27, 121198.20, -93588.92, -89337.33, -187500.02, -142436.39, -175141.42, -187500.02, 0.00, 0.00, 0.00
232, -65172.16, 121029.64, -93618.63, -89365.31, -187500.02, -142460.94, -175167.84, -187500.02, 0.00, 0.00, 0.00
233, -65129.11, 121234.77, -93573.72, -89321.75, -187500.02, -142413.98, -175117.38, -187500.02, 0.00, 0.00, 0.00
234, -65095.81, 121452.34, -93538.98, -89286.84, -187500.02, -142377.55, -175071.73, -187500.02, 0.00, 0.00, 0.00
235, -65190.78, 121226.23, -93631.16, -89376.15, -187500.02, -142464.97, -175157.52, -187500.02, 0.00, 0.00, 0.00
236, -65186.63, 120972.29, -93625.15, -89368.62, -187500.02, -142456.92, -175149.22, -187500.02, 0.00, 0.00, 0.00
237, -65066.15, 121153.02, -93504.54, -89247.38, -187500.02, -142336.55, -175020.80, -187500.02, -0.22, 0.45, 0.89
238, -65026.07, 121448.89, -93460.66, -89203.95, -187500.02, -142293.02, -174964.00, -187500.02, 0.00, 0.00, 0.00
239, -65104.80, 121311.56, -93535.03, -89278.84, -187500.02, -142367.05, -175031.03, -187500.02, 0.00, 0.00, 0.00
240, -65148.00, 121031.43, -93576.83, -89320.85, -187500.02, -142407.25, -175069.72, -187500.02, 0.00, 0.00, 0.00
241, -65119.10, 121094.98, -93548.24, -89291.84, -187500.02, -142375.17, -175037.05, -187500.02, 0.00, 0.00, 0.00
242, -65043.95, 121374.44, -93471.48, -89215.98, -187500.02, -142297.95, -174954.72, -187500.02, 0.00, 0.00, 0.00
243, -65033.98, 121288.59, -93457.05, -89202.28, -187500.02, -142284.14, -174928.66, -187500.02, 0.00, 0.00, 0.00
244, -65097.04, 121055.01, -93518.24, -89260.95, -187500.02, -142340.86, -174979.27, -187500.02, 0.00, 0.00, 0.00
245, -65083.94, 121063.84, -93504.98, -89246.91, -187500.02, -142323.92, -174962.00, -187500.02, 0.00, 0.00, 0.00
246, -65034.16, 121334.72, -93452.73, -89196.11, -187500.02, -142271.38, -174906.64, -187500.02, 0.00, 0.00, 0.00
247, -65028.20, 121333.89, -93444.23, -89186.95, -187500.02, -142261.72, -174889.61, -187500.02, -0.22, 0.46, 0.88
248, -65099.36, 121073.07, -93513.05, -89252.75, -187500.02, -142328.14, -174954.78, -187500.02, 0.00, 0.00, 0.00
249, -65079.29, 120979.73, -93491.29, -89229.70, -187500.02, -142304.88, -174929.91, -187500.02, 0.00, 0.00, 0.00
250, -64990.49, 121256.40, -93400.85, -89139.91, -187500.02, -142213.95, -174830.20, -187500.02, 0.00, 0.00, 0.00
251, -65018.90, 121374.77, -93425.39, -89163.84, -187500.02, -142238.81, -174847.39, -187500.02, 0.00, 0.00, 0.00
252, -65098.92, 121093.88, -93501.34, -89237.48, -187500.02, -142313.70, -174922.89, -187500.02, 0.00, 0.00, 0.00
253, -65051.06, 120938.67, -93451.84, -89189.02, -187500.02, -142263.55, -174870.86, -187500.02, 0.00, 0.00, 0.00
254, -64969.84, 121183.20, -93370.03, -89107.64, -187500.02, -142181.97, -174784.47, -187500.02, 0.00, 0.00, 0.00
255, -64962.35, 121350.05, -93358.16, -89096.58, -187500.02, -142172.56, -174764.55, -187500.02, 0.00, 0.00, 0.00
0, -65066.91, 121107.88, -93459.28, -89195.48, -187500.02, -142273.09, -174860.81, -187500.02, -0.22, 0.46, 0.88
1, -65114.52, 120935.96, -93504.83, -89238.84, -187500.02, -142317.39, -174905.55, -187500.02, 0.00, 0.00, 0.00
2, -65080.97, 121121.13, -93469.23, -89203.38, -187500.02, -142281.41, -174869.00, -187500.02, 0.00, 0.00, 0.00
3, -64973.30, 121320.30, -93357.09, -89093.02, -187500.02, -142172.44, -174752.17, -187500.02, 0.00, 0.00, 0.00
4, -65022.43, 121177.43, -93402.41, -89134.64, -187500.02, -142216.36, -174789.23, -187500.02, 0.00, 0.00, 0.00
5, -65055.49, 120961.63, -93433.84, -89165.62, -187500.02, -142248.47, -174821.50, -187500.02, 0.00, 0.00, 0.00
6, -65002.98, 121085.34, -93380.24, -89113.14, -187500.02, -142196.08, -174766.94, -187500.02, 0.00, 0.00, 0.00
7, -64937.00, 121395.25, -93310.39, -89045.19, -187500.02, -142127.09, -174687.34, -187500.02, 0.00, 0.00, 0.00
8, -65030.43, 121269.72, -93402.62, -89135.76, -187500.02, -142217.42, -174772.17, -187500.02, 0.00, 0.00, 0.00
9, -65031.71, 121008.48, -93402.15, -89135.11, -187500.02, -142217.03, -174771.34, -187500.02, 0.00, 0.00, 0.00
10, -64965.45, 121094.17, -93334.58, -89068.73, -187500.02, -142148.84, -174698.34, -187500.02, -0.23, 0.46, 0.87
11, -64984.12, 121448.65, -93351.66, -89086.56, -187500.02, -142164.42, -174706.28, -187500.02, 0.00, 0.00, 0.00
12, -65037.23, 121336.33, -93400.94, -89134.93, -187500.02, -142211.50, -174754.36, -187500.02, 0.00, 0.00, 0.00
13, -65031.14, 121061.94, -93393.23, -89125.66, -187500.02, -142202.48, -174746.80, -187500.02, 0.00, 0.00, 0.00
14, -65046.70, 121102.33, -93408.36, -89139.70, -187500.02, -142214.95, -174760.55, -187500.02, 0.00, 0.00, 0.00
15, -65003.27, 121367.58, -93361.29, -89094.23, -187500.02, -142168.91, -174709.45, -187500.02, 0.00, 0.00, 0.00
16, -65023.23, 121389.33, -93375.86, -89109.45, -187500.02, -142184.03, -174718.59, -187500.02, 0.00, 0.00, 0.00
17, -65027.97, 121109.46, -93377.41, -89113.56, -187500.02, -142185.30, -174721.92, -187500.02, 0.00, 0.00, 0.00
18, -64944.09, 121031.70, -93290.66, -89032.34, -187500.02, -142100.36, -174631.11, -187500.02, 0.00, 0.00, 0.00
19, -64961.61, 121387.13, -93305.39, -89048.41, -187500.02, -142113.91, -174637.14, -187500.02, 0.00, 0.00, 0.00
20, -65008.01, 121431.28, -93348.68, -89092.55, -187500.02, -142157.61, -174681.16, -187500.02, -0.23, 0.46, 0.87
21, -65009.27, 121155.03, -93349.15, -89094.66, -187500.02, -142159.28, -174684.28, -187500.02, 0.00, 0.00, 0.00
22, -64999.23, 121049.31, -93336.99, -89085.91, -187500.02, -142148.28, -174672.55, -187500.02, 0.00, 0.00, 0.00
23, -64945.20, 121288.32, -93279.26, -89032.72, -187500.02, -142091.69, -174610.97, -187500.02, 0.00, 0.00, 0.00
24, -64938.34, 121445.27, -93268.57, -89024.20, -187500.02, -142082.30, -174592.47, -187500.02, 0.00, 0.00, 0.00
25, -64976.34, 121206.35, -93303.53, -89059.23, -187500.02, -142119.67, -174625.17, -187500.02, 0.00, 0.00, 0.00
26, -64988.39, 121016.41, -93314.88, -89071.01, -187500.02, -142132.69, -174636.56, -187500.02, 0.00, 0.00, 0.00
27, -64924.80, 121187.87, -93249.62, -89008.20, -187500.02, -142069.19, -174568.73, -187500.02, 0.00, 0.00, 0.00
28, -64899.52, 121388.38, -93219.63, -88981.55, -187500.02, -142040.56, -174530.17, -187500.02, 0.00, 0.00, 0.00
29, -64993.75, 121125.28, -93309.79, -89072.08, -187500.02, -142131.16, -174617.55, -187500.02, 0.00, 0.00, 0.00
30, -65019.08, 120826.84, -93333.15, -89097.05, -187500.02, -142154.78, -174642.67, -187500.02, -0.22, 0.46, 0.87
31, -64963.53, 120823.65, -93276.02, -89042.06, -187500.02, -142098.70, -174585.52, -187500.02, 0.00, 0.00, 0.00
32, -64883.96, 121040.13, -93193.41, -88963.85, -187500.02, -142018.31, -174498.98, -187500.02, 0.00, 0.00, 0.00
33, -64976.43, 120867.57, -93286.12, -89053.30, -187500.02, -142107.00, -174587.59, -187500.02, 0.00, 0.00, 0.00
34, -65038.03, 120563.80, -93348.23, -89113.12, -187500.02, -142166.98, -174650.56, -187500.02, 0.00, 0.00, 0.00
35, -65010.40, 120679.66, -93322.82, -89087.39, -187500.02, -142139.50, -174624.72, -187500.02, 0.00, 0.00, 0.00
36, -64894.40, 121174.97, -93205.90, -88972.16, -187500.02, -142023.73, -174505.56, -187500.02, 0.00, 0.00, 0.00
37, -64884.18, 121353.95, -93192.66, -88958.06, -187500.02, -142011.33, -174483.02, -187500.02, 0.00, 0.00, 0.00
38, -64970.02, 121203.91, -93276.98, -89040.72, -187500.02, -142094.14, -174561.83, -187500.02, 0.00, 0.00, 0.00
39, -64968.29, 121206.71, -93273.54, -89038.91, -187500.02, -142091.70, -174561.38, -187500.02, -0.23, 0.47, 0.87
40, -64927.43, 121477.34, -93232.66, -89001.60, -187500.02, -142050.45, -174523.73, -187500.02, 0.00, 0.00, 0.00
41, -64895.65, 121422.07, -93199.77, -88970.52, -187500.02, -142016.97, -174488.42, -187500.02, 0.00, 0.00, 0.00
42, -64988.72, 121157.90, -93290.37, -89059.90, -187500.02, -142105.02, -174574.00, -187500.02, 0.00, 0.00, 0.00
43, -64985.86, 121051.19, -93286.92, -89056.88, -187500.02, -142100.58, -174571.34, -187500.02, 0.00, 0.00, 0.00
44, -64925.76, 121314.36, -93227.11, -89000.30, -187500.02, -142040.06, -174511.50, -187500.02, 0.00, 0.00, 0.00
45, -64911.34, 121390.58, -93210.55, -88985.35, -187500.02, -142022.78, -174488.00, -187500.02, 0.00, 0.00, 0.00
46, -64980.52, 121158.84, -93280.06, -89052.27, -187500.02, -142090.53, -174552.34, -187500.02, 0.00, 0.00, 0.00
47, -64999.18, 121013.63, -93299.82, -89072.05, -187500.02, -142110.75, -174572.89, -187500.02, 0.00, 0.00, 0.00
48, -64933.87, 121248.53, -93234.20, -89008.64, -187500.02, -142046.94, -174510.02, -187500.02, 0.00, 0.00, 0.00
49, -64886.96, 121402.16, -93186.97, -88962.53, -187500.02, -142001.97, -174459.58, -187500.02, -0.24, 0.47, 0.86
50, -64929.34, 121200.84, -93227.40, -89004.17, -187500.02, -142044.34, -174494.19, -187500.02, 0.00, 0.00, 0.00
51, -64979.27, 121017.55, -93277.05, -89053.99, -187500.02, -142091.88, -174544.44, -187500.02, 0.00, 0.00, 0.00
52, -64923.46, 121192.48, -93223.00, -89000.82, -187500.02, -142035.03, -174489.16, -187500.02, 0.00, 0.00, 0.00
53, -64889.32, 121428.59, -93188.71, -88965.69, -187500.02, -141999.64, -174447.31, -187500.02, 0.00, 0.00, 0.00
54, -64976.61, 121212.43, -93276.93, -89050.33, -187500.02, -142084.64, -174531.72, -187500.02, 0.00, 0.00, 0.00
55, -64980.74, 121014.55, -93282.97, -89057.70, -187500.02, -142090.53, -174539.20, -187500.02, 0.00, 0.00, 0.00
56, -64939.68, 121133.46, -93242.80, -89020.45, -187500.02, -142052.23, -174500.33, -187500.02, 0.00, 0.00, 0.00
57, -64885.21, 121401.82, -93187.08, -88967.65, -187500.02, -141998.50, -174438.97, -187500.02, 0.00, 0.00, 0.00
58, -64965.93, 121281.45, -93268.15, -89047.31, -187500.02, -142078.77, -174517.44, -187500.02, 0.00, 0.00, 0.00
59, -65022.63, 121011.54, -93327.74, -89103.23, -187500.02, -142134.42, -174576.55, -187500.02, -0.25, 0.45, 0.86
60, -64951.15, 121028.63, -93258.56, -89034.59, -187500.02, -142063.19, -174505.36, -187500.02, 0.00, 0.00, 0.00
61, -64893.04, 121354.19, -93199.93, -88976.62, -187500.02, -142003.80, -174439.80, -187500.02, 0.00, 0.00, 0.00
62, -64949.29, 121281.16, -93256.10, -89032.23, -187500.02, -142058.88, -174493.53, -187500.02, 0.00, 0.00, 0.00
63, -64968.61, 120997.86, -93279.28, -89055.00, -187500.02, -142078.95, -174519.84, -187500.02, 0.00, 0.00, 0.00
64, -64953.16, 120985.59, -93265.60, -89042.62, -187500.02, -142064.22, -174508.44, -187500.02, 0.00, 0.00, 0.00
65, -64884.70, 121286.91, -93194.19, -88974.31, -187500.02, -141996.58, -174433.70, -187500.02, 0.00, 0.00, 0.00
66, -64912.53, 121319.25, -93218.70, -88999.52, -187500.02, -142021.23, -174450.70, -187500.02, 0.00, 0.00, 0.00
67, -65008.46, 121034.09, -93315.18, -89094.07, -187500.02, -142114.55, -174544.61, -187500.02, 0.00, 0.00, 0.00
68, -65033.45, 120937.02, -93342.29, -89120.91, -187500.02, -142138.58, -174572.64, -187500.02, -0.26, 0.45, 0.87
69, -65001.62, 121219.50, -93309.63, -89092.09, -187500.02, -142106.47, -174543.45, -187500.02, 0.00, 0.00, 0.00
70, -64942.79, 121307.07, -93250.16, -89034.30, -187500.02, -142048.91, -174484.23, -187500.02, 0.00, 0.00, 0.00
71, -64971.76, 121085.56, -93278.32, -89061.06, -187500.02, -142075.33, -174505.63, -187500.02, 0.00, 0.00, 0.00
72, -65058.89, 120917.26, -93367.46, -89147.63, -187500.02, -142159.86, -174592.64, -187500.02, 0.00, 0.00, 0.00
73, -65032.75, 121107.54, -93344.86, -89123.48, -187500.02, -142134.16, -174570.66, -187500.02, 0.00, 0.00, 0.00
74, -64991.32, 121268.40, -93304.78, -89082.67, -187500.02, -142093.25, -174532.78, -187500.02, 0.00, 0.00, 0.00
75, -64970.06, 121052.51, -93284.91, -89062.94, -187500.02, -142071.69, -174508.89, -187500.02, 0.00, 0.00, 0.00
76, -65029.65, 120897.74, -93348.05, -89124.07, -187500.02, -142128.53, -174563.98, -187500.02, 0.00, 0.00, 0.00
77, -65017.45, 121048.93, -93341.04, -89115.24, -187500.02, -142115.88, -174557.00, -187500.02, 0.00, 0.00, 0.00
78, -64926.70, 121239.73, -93252.81, -89028.25, -187500.02, -142025.38, -174466.63, -187500.02, -0.26, 0.45, 0.88
79, -64926.14, 121077.77, -93253.64, -89027.69, -187500.02, -142023.94, -174460.08, -187500.02, 0.00, 0.00, 0.00
80, -64975.56, 120850.24, -93308.27, -89080.69, -187500.02, -142073.81, -174514.09, -187500.02, 0.00, 0.00, 0.00
81, -64935.86, 120961.47, -93273.02, -89045.05, -187500.02, -142036.41, -174478.88, -187500.02, 0.00, 0.00, 0.00
82, -64891.83, 121232.82, -93229.48, -89001.78, -187500.02, -141993.14, -174429.34, -187500.02, 0.00, 0.00, 0.00
83, -64952.71, 121091.16, -93291.98, -89060.88, -187500.02, -142052.19, -174489.16, -187500.02, 0.00, 0.00, 0.00
84, -64980.79, 120832.99, -93323.24, -89088.84, -187500.02, -142080.25, -174520.83, -187500.02, 0.00, 0.00, 0.00
85, -64958.91, 120878.52, -93303.30, -89067.66, -187500.02, -142059.30, -174502.16, -187500.02, 0.00, 0.00, 0.00
86, -64909.42, 121191.22, -93254.29, -89020.52, -187500.02, -142010.55, -174450.48, -187500.02, 0.00, 0.00, 0.00
87, -64954.52, 121164.94, -93302.17, -89067.92, -187500.02, -142055.97, -174493.67, -187500.02, 0.00, 0.00, 0.00
88, -65021.49, 120906.02, -93373.00, -89136.50, -187500.02, -142122.83, -174565.36, -187500.02, -0.25, 0.44, 0.87
89, -65005.73, 120866.25, -93361.36, -89123.53, -187500.02, -142107.67, -174552.75, -187500.02, 0.00, 0.00, 0.00
90, -64920.44, 121161.80, -93278.95, -89041.77, -187500.02, -142024.67, -174464.30, -187500.02, 0.00, 0.00, 0.00
91, -64957.27, 121205.10, -93316.54, -89078.05, -187500.02, -142061.14, -174497.69, -187500.02, 0.00, 0.00, 0.00
92, -65001.24, 120958.07, -93362.38, -89122.51, -187500.02, -142105.88, -174547.42, -187500.02, 0.00, 0.00, 0.00
93, -65005.33, 120872.42, -93370.61, -89129.97, -187500.02, -142110.47, -174557.94, -187500.02, 0.00, 0.00, 0.00
94, -64927.75, 121136.52, -93296.20, -89057.10, -187500.02, -142033.39, -174480.66, -187500.02, 0.00, 0.00, 0.00
95, -65008.62, 121278.21, -93378.81, -89137.84, -187500.02, -142112.09, -174557.22, -187500.02, 0.00, 0.00, 0.00
96, -65069.34, 121001.48, -93442.02, -89198.86, -187500.02, -142171.55, -174622.23, -187500.02, 0.00, 0.00, 0.00
97, -65074.00, 120876.38, -93450.67, -89205.18, -187500.02, -142176.56, -174633.77, -187500.02, 0.00, 0.00, 0.00
98, -65002.63, 121129.44, -93382.68, -89137.95, -187500.02, -142107.73, -174563.25, -187500.02, -0.25, 0.44, 0.88
99, -65002.20, 121346.01, -93383.20, -89138.73, -187500.02, -142108.19, -174557.89, -187500.02, 0.00, 0.00, 0.00
100, -65077.59, 121114.55, -93460.20, -89212.98, -187500.02, -142183.31, -174636.13, -187500.02, 0.00, 0.00, 0.00
101, -65112.17, 120965.52, -93498.73, -89248.03, -187500.02, -142219.19, -174676.86, -187500.02, 0.00, 0.00, 0.00
102, -65041.54, 121149.16, -93430.58, -89180.82, -187500.02, -142149.22, -174608.73, -187500.02, 0.00, 0.00, 0.00
103, -64969.10, 121394.22, -93359.37, -89111.91, -187500.02, -142077.77, -174530.66, -187500.02, 0.00, 0.00, 0.00
104, -65057.93, 121245.58, -93450.45, -89202.14, -187500.02, -142166.13, -174618.70, -187500.02, 0.00, 0.00, 0.00
105, -65092.57, 121008.63, -93489.43, -89239.54, -187500.02, -142201.08, -174659.36, -187500.02, 0.00, 0.00, 0.00
106, -65004.82, 121064.73, -93406.62, -89155.56, -187500.02, -142114.42, -174574.42, -187500.02, 0.00, 0.00, 0.00
107, -64961.21, 121402.27, -93365.96, -89113.07, -187500.02, -142070.67, -174524.66, -187500.02, -0.24, 0.44, 0.87
108, -65014.94, 121311.25, -93422.45, -89165.69, -187500.02, -142122.58, -174575.92, -187500.02, 0.00, 0.00, 0.00
109, -65040.42, 121050.00, -93451.81, -89193.23, -187500.02, -142147.14, -174606.22, -187500.02, 0.00, 0.00, 0.00
110, -64996.68, 121089.37, -93411.31, -89152.86, -187500.02, -142104.81, -174566.67, -187500.02, 0.00, 0.00, 0.00
111, -64908.75, 121429.38, -93324.95, -89067.02, -187500.02, -142018.11, -174475.83, -187500.02, 0.00, 0.00, 0.00
112, -64991.32, 121402.73, -93409.50, -89150.09, -187500.02, -142099.64, -174554.41, -187500.02, 0.00, 0.00, 0.00
113, -65103.28, 121123.59, -93526.09, -89262.27, -187500.02, -142211.14, -174670.89, -187500.02, 0.00, 0.00, 0.00
114, -65091.61, 121072.16, -93518.82, -89255.34, -187500.02, -142201.70, -174665.48, -187500.02, 0.00, 0.00, 0.00
115, -65009.06, 121343.91, -93438.40, -89177.58, -187500.02, -142120.56, -174587.56, -187500.02, 0.00, 0.00, 0.00
116, -64998.13, 121384.45, -93430.22, -89167.84, -187500.02, -142111.09, -174575.08, -187500.02, 0.00, 0.00, 0.00
117, -65099.48, 121138.13, -93533.53, -89268.13, -187500.02, -142212.17, -174678.66, -187500.02, -0.24, 0.45, 0.88
118, -65103.86, 121037.62, -93538.78, -89274.01, -187500.02, -142217.47, -174688.41, -187500.02, 0.00, 0.00, 0.00
119, -65029.20, 121295.02, -93466.34, -89203.06, -187500.02, -142145.13, -174614.55, -187500.02, 0.00, 0.00, 0.00
120, -65095.05, 121432.76, -93535.21, -89269.91, -187500.02, -142209.58, -174678.59, -187500.02, 0.00, 0.00, 0.00
121, -65152.52, 121158.54, -93595.80, -89328.92, -187500.02, -142265.73, -174742.27, -187500.02, 0.00, 0.00, 0.00
122, -65139.24, 121020.63, -93586.80, -89317.97, -187500.02, -142255.13, -174737.14, -187500.02, 0.00, 0.00, 0.00
123, -65048.09, 121217.77, -93499.20, -89230.48, -187500.02, -142169.58, -174648.72, -187500.02, 0.00, 0.00, 0.00
124, -65000.68, 121419.43, -93453.47, -89185.49, -187500.02, -142124.25, -174595.44, -187500.02, 0.00, 0.00, 0.00
125, -65087.50, 121189.12, -93541.76, -89270.34, -187500.02, -142207.50, -174680.38, -187500.02, 0.00, 0.00, 0.00
126, -65123.23, 121014.44, -93579.77, -89305.99, -187500.02, -142239.33, -174719.77, -187500.02, 0.00, 0.00, 0.00
127, -65091.65, 121210.11, -93550.92, -89277.27, -187500.02, -142207.02, -174692.88, -187500.02, -0.23, 0.45, 0.87
128, -65070.06, 121430.74, -93531.07, -89257.80, -187500.02, -142186.17, -174672.06, -187500.02, 0.00, 0.00, 0.00
129, -65097.24, 121230.63, -93560.80, -89286.97, -187500.02, -142213.11, -174700.09, -187500.02, 0.00, 0.00, 0.00
130, -65091.79, 121012.19, -93559.39, -89284.64, -187500.02, -142206.58, -174700.94, -187500.02, 0.00, 0.00, 0.00
131, -65076.59, 121135.41, -93547.70, -89271.44, -187500.02, -142189.19, -174683.89, -187500.02, 0.00, 0.00, 0.00
132, -65143.80, 121420.08, -93616.73, -89338.06, -187500.02, -142252.91, -174749.94, -187500.02, 0.00, 0.00, 0.00
133, -65139.20, 121281.05, -93614.47, -89334.64, -187500.02, -142250.67, -174750.58, -187500.02, 0.00, 0.00, 0.00
134, -65152.85, 121078.88, -93632.73, -89352.23, -187500.02, -142266.88, -174770.67, -187500.02, 0.00, 0.00, 0.00
135, -65117.16, 121113.66, -93602.42, -89322.33, -187500.02, -142233.52, -174738.95, -187500.02, 0.00, 0.00, 0.00
136, -65066.84, 121417.29, -93554.77, -89276.44, -187500.02, -142185.00, -174685.78, -187500.02, 0.00, 0.00, 0.00
137, -65141.61, 121376.98, -93632.10, -89351.48, -187500.02, -142259.59, -174760.11, -187500.02, -0.23, 0.45, 0.87
138, -65177.77, 121091.16, -93674.26, -89390.28, -187500.02, -142297.55, -174803.69, -187500.02, 0.00, 0.00, 0.00
139, -65171.56, 121079.71, -93673.45, -89388.11, -187500.02, -142294.55, -174805.20, -187500.02, 0.00, 0.00, 0.00
140, -65123.73, 121373.21, -93630.80, -89345.64, -187500.02, -142249.16, -174761.27, -187500.02, 0.00, 0.00, 0.00
141, -65152.11, 121399.88, -93660.63, -89373.94, -187500.02, -142275.11, -174785.55, -187500.02, 0.00, 0.00, 0.00
142, -65199.95, 121091.31, -93712.39, -89425.91, -187500.02, -142324.48, -174839.83, -187500.02, 0.00, 0.00, 0.00
143, -65161.70, 121003.87, -93681.27, -89394.88, -187500.02, -142289.25, -174811.58, -187500.02, 0.00, 0.00, 0.00
144, -65101.67, 121291.24, -93627.48, -89341.75, -187500.02, -142230.31, -174756.42, -187500.02, 0.00, 0.00, 0.00
145, -65097.57, 121403.48, -93626.73, -89341.20, -187500.02, -142227.75, -174749.67, -187500.02, 0.00, 0.00, 0.00
146, -65170.55, 121154.52, -93703.83, -89414.84, -187500.02, -142301.75, -174827.25, -187500.02, -0.24, 0.45, 0.88
147, -65162.87, 120992.07, -93701.33, -89409.79, -187500.02, -142296.13, -174827.98, -187500.02, 0.00, 0.00, 0.00
148, -65129.72, 121195.05, -93672.67, -89379.30, -187500.02, -142264.42, -174799.86, -187500.02, 0.00, 0.00, 0.00
149, -65087.14, 121344.53, -93632.26, -89337.62, -187500.02, -142222.84, -174756.58, -187500.02, 0.00, 0.00, 0.00
150, -65170.40, 121143.79, -93717.48, -89419.76, -187500.02, -142303.98, -174839.61, -187500.02, 0.00, 0.00, 0.00
151, -65199.41, 120921.84, -93750.99, -89450.02, -187500.02, -142330.97, -174872.11, -187500.02, 0.00, 0.00, 0.00
152, -65142.68, 121124.79, -93699.90, -89396.34, -187500.02, -142276.09, -174815.25, -187500.02, 0.00, 0.00, 0.00
153, -65166.26, 121387.02, -93725.76, -89419.80, -187500.02, -142300.31, -174836.09, -187500.02, 0.00, 0.00, 0.00
154, -65217.18, 121184.80, -93779.40, -89470.19, -187500.02, -142350.03, -174891.02, -187500.02, 0.00, 0.00, 0.00
155, -65235.78, 120979.17, -93801.39, -89490.84, -187500.02, -142367.98, -174915.73, -187500.02, 0.00, 0.00, 0.00
156, -65180.90, 121119.52, -93747.77, -89438.76, -187500.02, -142315.27, -174864.08, -187500.02, -0.25, 0.44, 0.87
157, -65127.06, 121388.95, -93694.38, -89386.97, -187500.02, -142261.92, -174805.83, -187500.02, 0.00, 0.00, 0.00
158, -65179.52, 121305.26, -93748.80, -89439.88, -187500.02, -142312.50, -174854.83, -187500.02, 0.00, 0.00, 0.00
159, -65247.89, 121078.41, -93819.74, -89509.41, -187500.02, -142380.77, -174928.69, -187500.02, 0.00, 0.00, 0.00
160, -65242.88, 121124.73, -93818.12, -89508.14, -187500.02, -142377.41, -174931.16, -187500.02, 0.00, 0.00, 0.00
161, -65170.33, 121414.52, -93748.45, -89440.32, -187500.02, -142307.78, -174863.25, -187500.02, 0.00, 0.00, 0.00
162, -65216.33, 121426.52, -93797.69, -89488.11, -187500.02, -142354.50, -174907.73, -187500.02, 0.00, 0.00, 0.00
163, -65291.21, 121147.34, -93878.28, -89565.98, -187500.02, -142430.92, -174988.61, -187500.02, 0.00, 0.00, 0.00
164, -65240.63, 121073.56, -93834.25, -89520.72, -187500.02, -142384.78, -174947.14, -187500.02, 0.00, 0.00, 0.00
165, -65193.46, 121403.07, -93792.68, -89477.65, -187500.02, -142340.53, -174905.69, -187500.02, 0.00, 0.00, 0.00
166, -65257.41, 121453.81, -93860.88, -89543.61, -187500.02, -142405.80, -174972.89, -187500.02, -0.24, 0.45, 0.87
167, -65284.10, 121161.72, -93892.59, -89574.59, -187500.02, -142434.67, -175008.41, -187500.02, 0.00, 0.00, 0.00
168, -65252.27, 121069.80, -93868.31, -89549.49, -187500.02, -142406.31, -174985.13, -187500.02, 0.00, 0.00, 0.00
169, -65196.04, 121367.35, -93817.73, -89498.51, -187500.02, -142352.38, -174927.52, -187500.02, 0.00, 0.00, 0.00
170, -65256.32, 121485.95, -93881.48, -89559.86, -187500.02, -142411.63, -174986.89, -187500.02, 0.00, 0.00, 0.00
171, -65344.03, 121209.33, -93973.81, -89649.06, -187500.02, -142497.86, -175080.45, -187500.02, 0.00, 0.00, 0.00
172, -65326.03, 121056.69, -93961.79, -89635.50, -187500.02, -142482.39, -175072.09, -187500.02, 0.00, 0.00, 0.00
173, -65273.71, 121290.02, -93914.56, -89588.67, -187500.02, -142434.63, -175026.98, -187500.02, 0.00, 0.00, 0.00
174, -65269.02, 121477.77, -93913.33, -89586.50, -187500.02, -142433.33, -175021.34, -187500.02, 0.00, 0.00, 0.00
175, -65335.09, 121256.84, -93983.85, -89653.88, -187500.02, -142501.80, -175093.20, -187500.02, -0.25, 0.45, 0.87
176, -65345.19, 121067.51, -94000.86, -89668.63, -187500.02, -142514.86, -175112.67, -187500.02, 0.00, 0.00, 0.00
177, -65314.54, 121220.63, -93977.62, -89642.27, -187500.02, -142486.88, -175089.80, -187500.02, 0.00, 0.00, 0.00
178, -65274.18, 121451.44, -93942.05, -89605.81, -187500.02, -142449.03, -175050.08, -187500.02, 0.00, 0.00, 0.00
179, -65380.91, 121218.40, -94051.80, -89714.40, -187500.02, -142555.22, -175160.78, -187500.02, 0.00, 0.00, 0.00
180, -65420.40, 120883.10, -94097.48, -89757.90, -187500.02, -142597.94, -175209.64, -187500.02, 0.00, 0.00, 0.00
181, -65423.96, 120893.74, -94106.90, -89766.03, -187500.02, -142604.08, -175221.73, -187500.02, 0.00, 0.00, 0.00
182, -65402.52, 121061.70, -94091.05, -89750.56, -187500.02, -142586.20, -175209.08, -187500.02, 0.00, 0.00, 0.00
183, -65367.90, 120843.30, -94060.70, -89719.43, -187500.02, -142554.08, -175177.30, -187500.02, 0.00, 0.00, 0.00
184, -65405.32, 120575.90, -94103.79, -89760.11, -187500.02, -142593.44, -175214.00, -187500.02, 0.00, 0.00, 0.00
185, -65382.96, 120632.54, -94088.26, -89744.51, -187500.02, -142574.67, -175198.17, -187500.02, -0.24, 0.45, 0.87
186, -65378.40, 121168.94, -94088.34, -89744.42, -187500.02, -142572.63, -175198.80, -187500.02, 0.00, 0.00, 0.00
187, -65324.27, 121309.64, -94037.01, -89693.13, -187500.02, -142521.11, -175148.94, -187500.02, 0.00, 0.00, 0.00
188, -65347.54, 121221.84, -94064.09, -89719.85, -187500.02, -142546.61, -175171.86, -187500.02, 0.00, 0.00, 0.00
189, -65421.74, 121236.22, -94143.35, -89798.31, -187500.02, -142621.67, -175252.84, -187500.02, 0.00, 0.00, 0.00
190, -65393.85, 121511.68, -94116.73, -89771.89, -187500.02, -142592.81, -175232.03, -187500.02, 0.00, 0.00, 0.00
191, -65375.88, 121464.20, -94100.46, -89754.27, -187500.02, -142575.11, -175221.67, -187500.02, 0.00, 0.00, 0.00
192, -65345.97, 121159.95, -94075.90, -89728.21, -187500.02, -142549.50, -175195.81, -187500.02, 0.00, 0.00, 0.00
193, -65410.61, 121094.88, -94147.38, -89796.27, -187500.02, -142616.58, -175263.39, -187500.02, 0.00, 0.00, 0.00
194, -65379.27, 121362.99, -94122.25, -89770.33, -187500.02, -142589.97, -175241.45, -187500.02, 0.00, 0.00, 0.00
195, -65328.36, 121450.30, -94074.96, -89723.19, -187500.02, -142543.55, -175196.86, -187500.02, -0.24, 0.46, 0.88
196, -65419.44, 121205.70, -94170.11, -89814.72, -187500.02, -142635.39, -175292.13, -187500.02, 0.00, 0.00, 0.00
197, -65453.28, 121041.13, -94209.63, -89850.81, -187500.02, -142670.78, -175335.09, -187500.02, 0.00, 0.00, 0.00
198, -65405.88, 121233.16, -94166.80, -89805.44, -187500.02, -142624.73, -175294.91, -187500.02, 0.00, 0.00, 0.00
199, -65335.84, 121410.16, -94097.96, -89737.47, -187500.02, -142556.61, -175224.64, -187500.02, 0.00, 0.00, 0.00
200, -65425.77, 121247.32, -94189.89, -89827.61, -187500.02, -142646.28, -175313.88, -187500.02, 0.00, 0.00, 0.00
201, -65458.85, 121036.15, -94226.97, -89862.93, -187500.02, -142680.14, -175354.14, -187500.02, 0.00, 0.00, 0.00
202, -65414.39, 121188.49, -94187.41, -89824.02, -187500.02, -142638.72, -175319.08, -187500.02, 0.00, 0.00, 0.00
203, -65361.57, 121432.06, -94140.34, -89775.71, -187500.02, -142589.19, -175270.73, -187500.02, 0.00, 0.00, 0.00
204, -65438.08, 121284.95, -94221.02, -89852.13, -187500.02, -142664.94, -175348.17, -187500.02, 0.00, 0.00, 0.00
205, -65524.27, 121052.17, -94311.82, -89940.13, -187500.02, -142751.78, -175441.94, -187500.02, -0.24, 0.45, 0.88
206, -65496.24, 121162.59, -94288.71, -89915.97, -187500.02, -142729.11, -175422.61, -187500.02, 0.00, 0.00, 0.00
207, -65419.51, 121405.53, -94215.39, -89840.53, -187500.02, -142655.78, -175350.55, -187500.02, 0.00, 0.00, 0.00
208, -65468.64, 121309.80, -94267.45, -89889.05, -187500.02, -142706.03, -175398.67, -187500.02, 0.00, 0.00, 0.00
209, -65543.56, 121043.37, -94349.10, -89966.15, -187500.02, -142783.52, -175480.05, -187500.02, 0.00, 0.00, 0.00
210, -65515.55, 121072.89, -94327.15, -89940.91, -187500.02, -142758.23, -175460.66, -187500.02, 0.00, 0.00, 0.00
211, -65441.79, 121361.38, -94259.80, -89870.93, -187500.02, -142687.27, -175392.33, -187500.02, 0.00, 0.00, 0.00
212, -65458.45, 121356.55, -94280.93, -89887.34, -187500.02, -142703.86, -175407.52, -187500.02, 0.00, 0.00, 0.00
213, -65556.52, 121081.30, -94383.30, -89985.86, -187500.02, -142801.36, -175510.00, -187500.02, 0.00, 0.00, 0.00
214, -65507.35, 120996.23, -94343.16, -89944.58, -187500.02, -142757.45, -175472.08, -187500.02, -0.24, 0.44, 0.88
215, -65448.72, 121324.82, -94290.80, -89890.48, -187500.02, -142704.64, -175420.27, -187500.02, 0.00, 0.00, 0.00
216, -65440.92, 121363.80, -94285.94, -89884.23, -187500.02, -142700.94, -175410.38, -187500.02, 0.00, 0.00, 0.00
217, -65548.37, 121111.63, -94397.88, -89990.84, -187500.02, -142808.80, -175520.73, -187500.02, 0.00, 0.00, 0.00
218, -65578.79, 121012.99, -94434.35, -90024.15, -187500.02, -142841.55, -175559.73, -187500.02, 0.00, 0.00, 0.00
219, -65545.91, 121267.44, -94406.92, -89994.31, -187500.02, -142811.75, -175535.75, -187500.02, 0.00, 0.00, 0.00
220, -65497.34, 121335.97, -94362.78, -89947.41, -187500.02, -142764.88, -175490.94, -187500.02, 0.00, 0.00, 0.00
221, -65540.92, 121103.40, -94412.13, -89992.63, -187500.02, -142809.52, -175534.86, -187500.02, 0.00, 0.00, 0.00
222, -65570.43, 120939.54, -94447.23, -90028.29, -187500.02, -142840.86, -175572.83, -187500.02, 0.00, 0.00, 0.00
223, -65515.53, 121175.64, -94397.83, -89979.34, -187500.02, -142789.91, -175525.88, -187500.02, 0.00, 0.00, 0.00
224, -65481.31, 121351.48, -94368.03, -89947.87, -187500.02, -142758.67, -175493.69, -187500.02, -0.25, 0.44, 0.88
225, -65586.05, 121152.33, -94477.87, -90053.70, -187500.02, -142863.05, -175598.63, -187500.02, 0.00, 0.00, 0.00
226, -65617.21, 120917.99, -94514.73, -90085.88, -187500.02, -142893.83, -175636.25, -187500.02, 0.00, 0.00, 0.00
227, -65575.77, 121078.19, -94479.45, -90047.45, -187500.02, -142853.84, -175603.88, -187500.02, 0.00, 0.00, 0.00
228, -65550.27, 121342.56, -94458.91, -90024.69, -187500.02, -142831.36, -175583.72, -187500.02, 0.00, 0.00, 0.00
229, -65615.87, 121138.54, -94527.58, -90091.38, -187500.02, -142896.78, -175653.75, -187500.02, 0.00, 0.00, 0.00
230, -65616.12, 120880.64, -94531.24, -90094.63, -187500.02, -142898.14, -175661.13, -187500.02, 0.00, 0.00, 0.00
231, -65563.50, 120992.52, -94482.66, -90045.97, -187500.02, -142846.47, -175612.23, -187500.02, 0.00, 0.00, 0.00
232, -65556.86, 121319.88, -94478.95, -90042.68, -187500.02, -142839.63, -175605.17, -187500.02, 0.00, 0.00, 0.00
233, -65641.98, 121182.21, -94568.57, -90128.87, -187500.02, -142926.73, -175698.08, -187500.02, 0.00, 0.00, 0.00
234, -65679.08, 120887.95, -94612.67, -90170.33, -187500.02, -142967.31, -175747.84, -187500.02, -0.25, 0.44, 0.87
235, -65583.95, 120874.09, -94523.11, -90081.02, -187500.02, -142876.17, -175660.25, -187500.02, 0.00, 0.00, 0.00
236, -65527.64, 121231.12, -94471.09, -90028.22, -187500.02, -142824.16, -175602.47, -187500.02, 0.00, 0.00, 0.00
237, -65602.28, 121201.95, -94548.68, -90103.16, -187500.02, -142901.94, -175682.17, -187500.02, 0.00, 0.00, 0.00
238, -65640.01, 120946.49, -94590.95, -90144.00, -187500.02, -142943.80, -175731.39, -187500.02, 0.00, 0.00, 0.00
239, -65635.94, 120891.40, -94591.71, -90141.03, -187500.02, -142942.95, -175737.33, -187500.02, 0.00, 0.00, 0.00
240, -65555.85, 121172.63, -94517.32, -90064.27, -187500.02, -142867.55, -175660.50, -187500.02, 0.00, 0.00, 0.00
241, -65627.65, 121271.60, -94594.86, -90137.70, -187500.02, -142942.19, -175732.25, -187500.02, 0.00, 0.00, 0.00
242, -65702.70, 120993.25, -94677.36, -90214.41, -187500.02, -143020.78, -175815.78, -187500.02, 0.00, 0.00, 0.00
243, -65678.99, 120889.14, -94659.30, -90193.80, -187500.02, -142999.73, -175801.42, -187500.02, 0.00, 0.00, 0.00
244, -65596.40, 121163.51, -94579.66, -90114.72, -187500.02, -142919.98, -175722.56, -187500.02, -0.24, 0.45, 0.88
245, -65625.21, 121297.03, -94610.17, -90144.85, -187500.02, -142950.63, -175751.81, -187500.02, 0.00, 0.00, 0.00
246, -65692.27, 121051.59, -94683.41, -90214.55, -187500.02, -143020.92, -175827.78, -187500.02, 0.00, 0.00, 0.00
247, -65659.27, 120913.79, -94659.27, -90187.09, -187500.02, -142992.20, -175805.72, -187500.02, 0.00, 0.00, 0.00
248, -65605.43, 121181.52, -94612.61, -90139.13, -187500.02, -142941.23, -175755.09, -187500.02, 0.00, 0.00, 0.00
249, -65676.38, 121379.98, -94685.98, -90209.09, -187500.02, -143012.25, -175828.06, -187500.02, 0.00, 0.00, 0.00
250, -65698.62, 121147.55, -94712.59, -90232.78, -187500.02, -143037.03, -175860.88, -187500.02, 0.00, 0.00, 0.00
251, -65714.93, 120956.17, -94735.27, -90253.03, -187500.02, -143056.08, -175886.23, -187500.02, 0.00, 0.00, 0.00
252, -65633.52, 121112.23, -94660.10, -90178.49, -187500.02, -142979.75, -175809.81, -187500.02, 0.00, 0.00, 0.00
253, -65621.52, 121432.58, -94648.86, -90167.54, -187500.02, -142969.20, -175794.66, -187500.02, -0.24, 0.45, 0.88
254, -65721.28, 121266.21, -94750.07, -90267.00, -187500.02, -143069.17, -175899.06, -187500.02, 0.00, 0.00, 0.00
255, -65728.63, 121045.98, -94763.15, -90276.73, -187500.02, -143080.13, -175916.30, -187500.02, 0.00, 0.00, 0.00
0, -65721.63, 121155.34, -94760.46, -90271.70, -187500.02, -143075.95, -175918.69, -187500.02, 0.00, 0.00, 0.00
1, -65662.16, 121400.50, -94703.87, -90213.05, -187500.02, -143017.55, -175862.09, -187500.02, 0.00, 0.00, 0.00
2, -65696.76, 121318.42, -94741.64, -90248.00, -187500.02, -143053.97, -175895.45, -187500.02, 0.00, 0.00, 0.00
3, -65761.98, 121076.29, -94812.07, -90315.84, -187500.02, -143121.03, -175966.77, -187500.02, 0.00, 0.00, 0.00
4, -65770.05, 121114.69, -94824.34, -90326.19, -187500.02, -143130.98, -175981.92, -187500.02, 0.00, 0.00, 0.00
5, -65696.63, 121401.17, -94755.01, -90256.43, -187500.02, -143060.86, -175914.30, -187500.02, 0.00, 0.00, 0.00
6, -65716.79, 121397.64, -94776.45, -90275.88, -187500.02, -143080.69, -175933.38, -187500.02, 0.00, 0.00, 0.00
7, -65797.48, 121121.41, -94858.70, -90355.54, -187500.02, -143159.25, -176017.67, -187500.02, -0.24, 0.45, 0.87
8, -65791.80, 121056.10, -94856.42, -90352.68, -187500.02, -143155.81, -176020.41, -187500.02, 0.00, 0.00, 0.00
9, -65720.85, 121353.61, -94791.30, -90286.92, -187500.02, -143089.92, -175955.55, -187500.02, 0.00, 0.00, 0.00
10, -65733.33, 121417.02, -94807.98, -90300.80, -187500.02, -143104.33, -175967.66, -187500.02, 0.00, 0.00, 0.00
11, -65831.30, 121172.38, -94910.89, -90398.14, -187500.02, -143204.11, -176069.52, -187500.02, 0.00, 0.00, 0.00
12, -65848.21, 121058.67, -94934.49, -90416.47, -187500.02, -143223.95, -176094.44, -187500.02, 0.00, 0.00, 0.00
13, -65800.98, 121271.04, -94893.14, -90371.84, -187500.02, -143180.42, -176055.56, -187500.02, 0.00, 0.00, 0.00
14, -65745.95, 121406.55, -94841.27, -90319.26, -187500.02, -143128.00, -176003.80, -187500.02, 0.00, 0.00, 0.00
15, -65809.70, 121214.87, -94907.76, -90384.69, -187500.02, -143193.50, -176070.08, -187500.02, 0.00, 0.00, 0.00
16, -65831.85, 121033.15, -94934.88, -90410.81, -187500.02, -143217.81, -176100.33, -187500.02, 0.00, 0.00, 0.00
17, -65807.80, 121244.27, -94915.07, -90388.53, -187500.02, -143195.80, -176084.16, -187500.02, -0.23, 0.45, 0.88
18, -65734.73, 121408.48, -94844.23, -90316.40, -187500.02, -143123.89, -176011.39, -187500.02, 0.00, 0.00, 0.00
19, -65787.06, 121217.77, -94902.87, -90370.38, -187500.02, -143177.53, -176063.66, -187500.02, 0.00, 0.00, 0.00
20, -65899.78, 121032.08, -95022.09, -90483.59, -187500.02, -143290.77, -176183.13, -187500.02, 0.00, 0.00, 0.00
21, -65876.47, 121177.61, -95007.25, -90465.93, -187500.02, -143271.86, -176169.05, -187500.02, 0.00, 0.00, 0.00
22, -65860.44, 121425.40, -94997.62, -90454.53, -187500.02, -143261.36, -176163.30, -187500.02, 0.00, 0.00, 0.00
23, -65868.22, 121250.97, -95009.44, -90465.15, -187500.02, -143271.81, -176177.38, -187500.02, 0.00, 0.00, 0.00
24, -65927.36, 121039.79, -95073.59, -90526.46, -187500.02, -143332.28, -176238.33, -187500.02, 0.00, 0.00, 0.00
25, -65894.37, 121091.51, -95046.48, -90498.21, -187500.02, -143303.36, -176211.38, -187500.02, 0.00, 0.00, 0.00
26, -65817.93, 121376.77, -94975.29, -90425.48, -187500.02, -143232.67, -176135.41, -187500.02, 0.00, 0.00, 0.00
27, -65850.07, 121299.47, -95013.98, -90459.25, -187500.02, -143268.84, -176166.83, -187500.02, -0.23, 0.45, 0.87
28, -65885.59, 121029.91, -95056.84, -90497.49, -187500.02, -143308.41, -176210.13, -187500.02, 0.00, 0.00, 0.00
29, -65891.60, 121069.43, -95068.02, -90506.26, -187500.02, -143316.72, -176224.75, -187500.02, 0.00, 0.00, 0.00
30, -65833.06, 121371.78, -95014.73, -90452.23, -187500.02, -143260.66, -176169.48, -187500.02, 0.00, 0.00, 0.00
31, -65850.27, 121345.78, -95035.52, -90470.60, -187500.02, -143279.33, -176185.94, -187500.02, 0.00, 0.00, 0.00
32, -65922.42, 121076.96, -95113.76, -90544.16, -187500.02, -143353.42, -176267.39, -187500.02, 0.00, 0.00, 0.00
33, -65936.64, 121031.97, -95134.61, -90562.70, -187500.02, -143369.89, -176292.42, -187500.02, 0.00, 0.00, 0.00
34, -65851.63, 121280.29, -95056.00, -90483.41, -187500.02, -143290.80, -176214.22, -187500.02, 0.00, 0.00, 0.00
35, -65882.75, 121331.27, -95091.47, -90518.26, -187500.02, -143326.47, -176249.44, -187500.02, 0.00, 0.00, 0.00
36, -65928.86, 121056.87, -95141.59, -90565.66, -187500.02, -143374.41, -176303.27, -187500.02, -0.23, 0.45, 0.87
37, -65854.95, 120961.76, -95074.41, -90496.16, -187500.02, -143305.20, -176232.19, -187500.02, 0.00, 0.00, 0.00
38, -65845.69, 121276.70, -95071.20, -90488.28, -187500.02, -143297.94, -176219.22, -187500.02, 0.00, 0.00, 0.00
39, -65927.23, 121364.24, -95158.91, -90569.27, -187500.02, -143382.14, -176308.30, -187500.02, 0.00, 0.00, 0.00
40, -65981.86, 121106.44, -95217.47, -90626.76, -187500.02, -143441.00, -176375.80, -187500.02, 0.00, 0.00, 0.00
41, -65979.71, 120965.98, -95220.04, -90630.15, -187500.02, -143443.86, -176383.88, -187500.02, 0.00, 0.00, 0.00
42, -65931.85, 121150.05, -95179.11, -90588.55, -187500.02, -143399.88, -176342.34, -187500.02, 0.00, 0.00, 0.00
43, -65939.45, 121362.88, -95188.34, -90595.80, -187500.02, -143406.42, -176348.94, -187500.02, 0.00, 0.00, 0.00
44, -66045.58, 121123.96, -95296.93, -90699.24, -187500.02, -143512.41, -176461.08, -187500.02, 0.00, 0.00, 0.00
45, -66069.25, 120977.41, -95325.85, -90723.49, -187500.02, -143539.30, -176496.14, -187500.02, 0.00, 0.00, 0.00
46, -66003.63, 121189.27, -95266.40, -90661.24, -187500.02, -143479.22, -176438.98, -187500.02, -0.24, 0.45, 0.88
47, -65971.73, 121435.08, -95240.16, -90632.72, -187500.02, -143453.36, -176409.28, -187500.02, 0.00, 0.00, 0.00
48, -66056.33, 121323.61, -95329.61, -90718.38, -187500.02, -143539.67, -176498.89, -187500.02, 0.00, 0.00, 0.00
49, -66068.80, 121095.96, -95347.55, -90732.81, -187500.02, -143553.94, -176519.56, -187500.02, 0.00, 0.00, 0.00
50, -66007.54, 121110.46, -95291.85, -90674.36, -187500.02, -143493.75, -176462.97, -187500.02, 0.00, 0.00, 0.00
51, -65958.74, 121416.77, -95246.79, -90628.03, -187500.02, -143445.05, -176412.72, -187500.02, 0.00, 0.00, 0.00
52, -66023.03, 121375.40, -95314.41, -90690.44, -187500.02, -143509.17, -176476.42, -187500.02, 0.00, 0.00, 0.00
53, -66087.18, 121134.45, -95384.55, -90754.61, -187500.02, -143574.09, -176548.58, -187500.02, 0.00, 0.00, 0.00
54, -66071.84, 121091.66, -95376.43, -90743.99, -187500.02, -143561.20, -176544.28, -187500.02, 0.00, 0.00, 0.00
55, -66039.08, 121418.47, -95350.80, -90715.91, -187500.02, -143531.36, -176521.42, -187500.02, 0.00, 0.00, 0.00
56, -66012.59, 121479.45, -95330.21, -90691.33, -187500.02, -143507.53, -176497.73, -187500.02, -0.24, 0.45, 0.88
57, -66115.23, 121212.88, -95438.08, -90794.28, -187500.02, -143612.20, -176603.45, -187500.02, 0.00, 0.00, 0.00
58, -66138.77, 121148.06, -95468.19, -90821.35, -187500.02, -143639.50, -176636.05, -187500.02, 0.00, 0.00, 0.00
59, -66101.08, 121430.50, -95435.06, -90787.59, -187500.02, -143605.84, -176605.78, -187500.02, 0.00, 0.00, 0.00
60, -66091.13, 121464.59, -95429.09, -90777.20, -187500.02, -143598.02, -176599.47, -187500.02, 0.00, 0.00, 0.00
61, -66120.75, 121218.22, -95466.40, -90809.03, -187500.02, -143629.33, -176628.03, -187500.02, 0.00, 0.00, 0.00
62, -66196.16, 121072.98, -95548.07, -90886.44, -187500.02, -143705.97, -176709.22, -187500.02, 0.00, 0.00, 0.00
63, -66157.38, 121275.53, -95515.69, -90853.24, -187500.02, -143671.47, -176680.86, -187500.02, 0.00, 0.00, 0.00
64, -66133.42, 121470.69, -95496.20, -90831.02, -187500.02, -143651.92, -176667.88, -187500.02, 0.00, 0.00, 0.00
65, -66127.45, 121248.87, -95495.52, -90826.76, -187500.02, -143650.70, -176667.59, -187500.02, -0.24, 0.44, 0.88
66, -66175.71, 121060.35, -95549.95, -90876.53, -187500.02, -143702.63, -176720.80, -187500.02, 0.00, 0.00, 0.00
67, -66140.13, 121338.19, -95519.64, -90844.33, -187500.02, -143671.36, -176694.11, -187500.02, 0.00, 0.00, 0.00
68, -66079.33, 121509.17, -95460.81, -90784.11, -187500.02, -143612.39, -176634.86, -187500.02, 0.00, 0.00, 0.00
69, -66137.98, 121249.05, -95525.25, -90842.31, -187500.02, -143671.39, -176693.34, -187500.02, 0.00, 0.00, 0.00
70, -66173.70, 121008.36, -95569.06, -90882.21, -187500.02, -143710.25, -176736.72, -187500.02, 0.00, 0.00, 0.00
71, -66178.08, 121065.29, -95578.23, -90890.41, -187500.02, -143717.94, -176749.75, -187500.02, 0.00, 0.00, 0.00
72, -66118.72, 121250.07, -95520.67, -90831.95, -187500.02, -143660.56, -176695.09, -187500.02, 0.00, 0.00, 0.00
73, -66185.73, 121050.85, -95589.84, -90896.90, -187500.02, -143726.34, -176760.52, -187500.02, 0.00, 0.00, 0.00
74, -66257.30, 120664.95, -95665.33, -90968.27, -187500.02, -143798.27, -176837.14, -187500.02, 0.00, 0.00, 0.00
75, -66205.80, 120684.17, -95620.45, -90922.00, -187500.02, -143751.89, -176794.48, -187500.02, -0.24, 0.44, 0.88
76, -66131.08, 121056.95, -95552.68, -90853.02, -187500.02, -143683.22, -176724.08, -187500.02, 0.00, 0.00, 0.00
77, -66137.94, 121270.80, -95563.43, -90861.63, -187500.02, -143692.41, -176728.08, -187500.02, 0.00, 0.00, 0.00
78, -66205.66, 121312.13, -95635.53, -90929.66, -187500.02, -143761.14, -176801.33, -187500.02, 0.00, 0.00, 0.00
79, -66147.37, 121339.15, -95582.67, -90874.61, -187500.02, -143706.94, -176752.53, -187500.02, 0.00, 0.00, 0.00
80, -66063.35, 121650.91, -95505.96, -90795.78, -187500.02, -143628.06, -176672.05, -187500.02, 0.00, 0.00, 0.00
81, -66143.88, 121617.80, -95592.84, -90877.70, -187500.02, -143711.63, -176757.50, -187500.02, 0.00, 0.00, 0.00
82, -66205.10, 121310.87, -95659.98, -90939.97, -187500.02, -143775.00, -176828.27, -187500.02, 0.00, 0.00, 0.00
83, -66228.57, 121188.23, -95690.20, -90965.63, -187500.02, -143799.25, -176861.66, -187500.02, 0.00, 0.00, 0.00
84, -66175.11, 121457.14, -95640.32, -90912.63, -187500.02, -143745.53, -176812.63, -187500.02, 0.00, 0.00, 0.00
85, -66151.23, 121477.55, -95619.91, -90890.02, -187500.02, -143722.63, -176788.25, -187500.02, -0.24, 0.44, 0.88
86, -66255.75, 121230.00, -95729.16, -90995.20, -187500.02, -143828.69, -176895.50, -187500.02, 0.00, 0.00, 0.00
87, -66263.66, 121090.59, -95743.38, -91006.55, -187500.02, -143838.20, -176911.13, -187500.02, 0.00, 0.00, 0.00
88, -66252.94, 121378.10, -95739.65, -90999.70, -187500.02, -143830.36, -176910.11, -187500.02, 0.00, 0.00, 0.00
89, -66270.62, 121517.96, -95761.84, -91019.45, -187500.02, -143850.48, -176938.77, -187500.02, 0.00, 0.00, 0.00
90, -66272.92, 121231.08, -95768.28, -91023.56, -187500.02, -143855.64, -176948.25, -187500.02, 0.00, 0.00, 0.00
91, -66284.48, 121083.64, -95787.30, -91038.30, -187500.02, -143870.66, -176960.03, -187500.02, 0.00, 0.00, 0.00
92, -66272.41, 121275.84, -95782.77, -91030.36, -187500.02, -143861.61, -176954.19, -187500.02, 0.00, 0.00, 0.00
93, -66263.35, 121506.07, -95779.45, -91024.34, -187500.02, -143855.17, -176956.94, -187500.02, 0.00, 0.00, 0.00
94, -66302.70, 121310.73, -95824.74, -91066.01, -187500.02, -143896.14, -177008.31, -187500.02, 0.00, 0.00, 0.00
95, -66279.38, 121063.95, -95806.37, -91044.30, -187500.02, -143874.13, -176989.00, -187500.02, -0.24, 0.42, 0.88
96, -66270.38, 121186.59, -95802.21, -91036.57, -187500.02, -143867.80, -176980.50, -187500.02, 0.00, 0.00, 0.00
97, -66263.48, 121448.11, -95800.00, -91031.19, -187500.02, -143864.06, -176980.80, -187500.02, 0.00, 0.00, 0.00
98, -66285.62, 121325.13, -95825.59, -91052.73, -187500.02, -143888.09, -177005.66, -187500.02, 0.00, 0.00, 0.00
99, -66345.61, 121093.52, -95889.85, -91111.67, -187500.02, -143949.23, -177070.33, -187500.02, 0.00, 0.00, 0.00
100, -66331.57, 121146.14, -95882.48, -91099.60, -187500.02, -143938.75, -177066.63, -187500.02, 0.00, 0.00, 0.00
101, -66267.24, 121400.39, -95823.58, -91037.73, -187500.02, -143878.08, -177010.00, -187500.02, 0.00, 0.00, 0.00
102, -66321.85, 121357.67, -95882.66, -91093.01, -187500.02, -143933.94, -177067.19, -187500.02, 0.00, 0.00, 0.00
103, -66395.41, 121089.99, -95961.11, -91167.76, -187500.02, -144010.42, -177147.89, -187500.02, 0.00, 0.00, 0.00
104, -66383.00, 121078.63, -95952.70, -91157.25, -187500.02, -144002.06, -177143.69, -187500.02, -0.25, 0.43, 0.89
105, -66323.91, 121388.72, -95896.89, -91098.89, -187500.02, -143945.78, -177088.31, -187500.02, 0.00, 0.00, 0.00
106, -66350.39, 121420.70, -95925.21, -91124.20, -187500.02, -143971.83, -177114.86, -187500.02, 0.00, 0.00, 0.00
107, -66436.58, 121151.30, -96016.36, -91211.12, -187500.02, -144058.38, -177210.19, -187500.02, 0.00, 0.00, 0.00
108, -66468.88, 121053.20, -96054.77, -91244.13, -187500.02, -144091.59, -177252.20, -187500.02, 0.00, 0.00, 0.00
109, -66398.58, 121278.30, -95989.85, -91175.16, -187500.02, -144023.55, -177186.56, -187500.02, 0.00, 0.00, 0.00
110, -66351.89, 121383.55, -95947.70, -91129.71, -187500.02, -143979.03, -177137.38, -187500.02, 0.00, 0.00, 0.00
111, -66431.98, 121172.63, -96034.80, -91212.50, -187500.02, -144060.88, -177221.03, -187500.02, 0.00, 0.00, 0.00
112, -66464.14, 121016.45, -96073.38, -91246.32, -187500.02, -144095.19, -177261.58, -187500.02, 0.00, 0.00, 0.00
113, -66440.63, 121257.25, -96054.88, -91224.51, -187500.02, -144076.02, -177247.45, -187500.02, 0.00, 0.00, 0.00
114, -66394.58, 121355.73, -96012.97, -91180.49, -187500.02, -144035.91, -177207.58, -187500.02, -0.25, 0.44, 0.88
115, -66436.84, 121124.50, -96059.19, -91223.26, -187500.02, -144080.48, -177249.50, -187500.02, 0.00, 0.00, 0.00
116, -66481.71, 120937.55, -96109.01, -91268.12, -187500.02, -144125.34, -177299.38, -187500.02, 0.00, 0.00, 0.00
117, -66499.09, 121128.13, -96130.27, -91284.66, -187500.02, -144144.98, -177323.78, -187500.02, 0.00, 0.00, 0.00
118, -66467.02, 121330.02, -96103.20, -91252.80, -187500.02, -144116.94, -177300.94, -187500.02, 0.00, 0.00, 0.00
119, -66416.84, 121160.42, -96061.02, -91206.38, -187500.02, -144070.48, -177254.73, -187500.02, 0.00, 0.00, 0.00
120, -66461.62, 121000.45, -96112.03, -91254.86, -187500.02, -144116.67, -177304.02, -187500.02, 0.00, 0.00, 0.00
121, -66450.82, 121065.91, -96106.62, -91247.20, -187500.02, -144108.36, -177300.72, -187500.02, 0.00, 0.00, 0.00
122, -66390.65, 121326.67, -96047.86, -91187.60, -187500.02, -144050.86, -177243.05, -187500.02, 0.00, 0.00, 0.00
123, -66445.90, 121203.80, -96106.33, -91241.92, -187500.02, -144107.30, -177296.31, -187500.02, 0.00, 0.00, 0.00
124, -66516.45, 120994.15, -96183.48, -91313.24, -187500.02, -144180.39, -177375.92, -187500.02, -0.25, 0.45, 0.88
125, -66511.23, 121016.38, -96184.90, -91313.02, -187500.02, -144178.36, -177381.58, -187500.02, 0.00, 0.00, 0.00
126, -66444.94, 121280.13, -96124.77, -91251.62, -187500.02, -144116.22, -177321.61, -187500.02, 0.00, 0.00, 0.00
127, -66464.70, 121236.91, -96150.27, -91273.28, -187500.02, -144139.27, -177342.42, -187500.02, 0.00, 0.00, 0.00
128, -66528.42, 121000.78, -96218.65, -91337.07, -187500.02, -144205.38, -177411.27, -187500.02, 0.00, 0.00, 0.00
129, -66513.76, 120974.34, -96207.25, -91323.28, -187500.02, -144192.69, -177402.66, -187500.02, 0.00, 0.00, 0.00
130, -66420.89, 121318.94, -96117.35, -91233.05, -187500.02, -144103.75, -177310.70, -187500.02, 0.00, 0.00, 0.00
131, -66494.96, 121343.41, -96193.39, -91305.91, -187500.02, -144177.42, -177383.08, -187500.02, 0.00, 0.00, 0.00
132, -66571.14, 121045.38, -96272.91, -91382.00, -187500.02, -144252.95, -177465.06, -187500.02, 0.00, 0.00, 0.00
133, -66547.45, 120973.31, -96255.37, -91363.06, -187500.02, -144232.73, -177450.69, -187500.02, 0.00, 0.00, 0.00
134, -66521.88, 121259.46, -96235.88, -91340.73, -187500.02, -144209.25, -177434.64, -187500.02, -0.24, 0.45, 0.88
135, -66481.95, 121335.63, -96199.65, -91301.87, -187500.02, -144170.77, -177399.52, -187500.02, 0.00, 0.00, 0.00
136, -66532.36, 121107.05, -96252.73, -91351.15, -187500.02, -144222.08, -177450.66, -187500.02, 0.00, 0.00, 0.00
137, -66574.34, 120976.40, -96300.07, -91395.27, -187500.02, -144266.17, -177500.16, -187500.02, 0.00, 0.00, 0.00
138, -66530.01, 121235.08, -96263.84, -91356.43, -187500.02, -144225.78, -177466.45, -187500.02, 0.00, 0.00, 0.00
139, -66461.21, 121417.45, -96201.79, -91290.94, -187500.02, -144160.72, -177402.91, -187500.02, 0.00, 0.00, 0.00
140, -66534.19, 121214.69, -96278.86, -91365.91, -187500.02, -144234.59, -177477.52, -187500.02, 0.00, 0.00, 0.00
141, -66570.84, 121033.87, -96317.95, -91404.69, -187500.02, -144272.08, -177520.98, -187500.02, 0.00, 0.00, 0.00
142, -66532.52, 121240.41, -96285.08, -91370.15, -187500.02, -144236.73, -177488.63, -187500.02, 0.00, 0.00, 0.00
143, -66500.91, 121493.23, -96255.35, -91340.45, -187500.02, -144206.72, -177453.44, -187500.02, -0.24, 0.44, 0.88
144, -66566.87, 121320.82, -96324.95, -91408.87, -187500.02, -144273.73, -177521.45, -187500.02, 0.00, 0.00, 0.00
145, -66611.03, 121105.23, -96375.06, -91455.76, -187500.02, -144319.63, -177574.61, -187500.02, 0.00, 0.00, 0.00
146, -66584.10, 121201.86, -96352.24, -91430.99, -187500.02, -144294.94, -177556.16, -187500.02, 0.00, 0.00, 0.00
147, -66511.19, 121475.13, -96283.20, -91361.48, -187500.02, -144224.63, -177487.39, -187500.02, 0.00, 0.00, 0.00
148, -66580.13, 121404.88, -96356.29, -91430.86, -187500.02, -144294.25, -177555.77, -187500.02, 0.00, 0.00, 0.00
149, -66658.38, 121134.25, -96439.93, -91511.30, -187500.02, -144374.66, -177641.16, -187500.02, 0.00, 0.00, 0.00
150, -66635.42, 121150.27, -96422.94, -91491.37, -187500.02, -144354.52, -177626.33, -187500.02, 0.00, 0.00, 0.00
151, -66532.00, 121445.80, -96323.59, -91391.43, -187500.02, -144254.78, -177528.55, -187500.02, 0.00, 0.00, 0.00
152, -66551.80, 121423.66, -96346.38, -91412.06, -187500.02, -144276.53, -177547.17, -187500.02, 0.00, 0.00, 0.00
153, -66610.92, 121136.41, -96409.64, -91471.43, -187500.02, -144336.50, -177610.44, -187500.02, -0.23, 0.44, 0.89
154, -66567.65, 121133.29, -96370.44, -91432.09, -187500.02, -144296.28, -177574.17, -187500.02, 0.00, 0.00, 0.00
155, -66501.63, 121420.70, -96309.23, -91371.02, -187500.02, -144235.88, -177513.81, -187500.02, 0.00, 0.00, 0.00
156, -66576.32, 121472.25, -96386.58, -91445.84, -187500.02, -144313.67, -177591.75, -187500.02, 0.00, 0.00, 0.00
157, -66656.12, 121188.27, -96469.92, -91525.95, -187500.02, -144396.16, -177680.97, -187500.02, 0.00, 0.00, 0.00
158, -66646.55, 121089.45, -96465.23, -91520.11, -187500.02, -144391.28, -177682.58, -187500.02, 0.00, 0.00, 0.00
159, -66567.88, 121370.88, -96389.39, -91443.06, -187500.02, -144315.27, -177605.88, -187500.02, 0.00, 0.00, 0.00
160, -66637.55, 121497.93, -96461.16, -91510.41, -187500.02, -144383.59, -177674.02, -187500.02, 0.00, 0.00, 0.00
161, -66735.35, 121211.98, -96565.05, -91608.64, -187500.02, -144483.17, -177781.02, -187500.02, 0.00, 0.00, 0.00
162, -66724.63, 121069.25, -96562.30, -91602.25, -187500.02, -144477.53, -177781.05, -187500.02, 0.00, 0.00, 0.00
163, -66638.08, 121309.53, -96481.13, -91519.33, -187500.02, -144394.59, -177699.14, -187500.02, -0.23, 0.45, 0.89
164, -66630.10, 121516.62, -96475.52, -91510.25, -187500.02, -144387.75, -177690.02, -187500.02, 0.00, 0.00, 0.00
165, -66708.42, 121274.88, -96557.66, -91588.28, -187500.02, -144465.94, -177773.86, -187500.02, 0.00, 0.00, 0.00
166, -66706.90, 121058.61, -96562.20, -91589.45, -187500.02, -144467.39, -177781.55, -187500.02, 0.00, 0.00, 0.00
167, -66651.70, 121268.36, -96512.20, -91538.86, -187500.02, -144416.20, -177735.67, -187500.02, 0.00, 0.00, 0.00
168, -66624.60, 121504.15, -96488.19, -91514.54, -187500.02, -144391.97, -177713.03, -187500.02, 0.00, 0.00, 0.00
169, -66673.42, 121317.62, -96541.79, -91563.98, -187500.02, -144442.98, -177761.72, -187500.02, 0.00, 0.00, 0.00
170, -66748.56, 121104.61, -96622.14, -91639.27, -187500.02, -144519.80, -177840.06, -187500.02, 0.00, 0.00, 0.00
171, -66718.55, 121240.59, -96596.59, -91611.44, -187500.02, -144492.59, -177817.11, -187500.02, 0.00, 0.00, 0.00
172, -66726.82, 121551.17, -96610.96, -91622.86, -187500.02, -144504.02, -177836.53, -187500.02, -0.23, 0.45, 0.88
173, -66722.62, 121360.27, -96612.71, -91622.08, -187500.02, -144504.97, -177843.80, -187500.02, 0.00, 0.00, 0.00
174, -66642.95, 121107.76, -96537.83, -91545.73, -187500.02, -144430.70, -177766.56, -187500.02, 0.00, 0.00, 0.00
175, -66674.54, 121225.30, -96576.45, -91581.71, -187500.02, -144466.94, -177798.75, -187500.02, 0.00, 0.00, 0.00
176, -66663.16, 121489.84, -96568.95, -91572.03, -187500.02, -144458.56, -177792.19, -187500.02, 0.00, 0.00, 0.00
177, -66652.38, 121497.51, -96561.19, -91563.43, -187500.02, -144450.61, -177784.45, -187500.02, 0.00, 0.00, 0.00
178, -66738.66, 121241.69, -96652.85, -91650.95, -187500.02, -144538.09, -177875.53, -187500.02, 0.00, 0.00, 0.00
179, -66744.88, 121190.38, -96665.73, -91659.63, -187500.02, -144545.83, -177889.64, -187500.02, 0.00, 0.00, 0.00
180, -66652.36, 121472.02, -96576.34, -91569.82, -187500.02, -144456.22, -177801.39, -187500.02, 0.00, 0.00, 0.00
181, -66679.86, 121514.88, -96605.11, -91597.38, -187500.02, -144484.36, -177829.31, -187500.02, 0.00, 0.00, 0.00
182, -66753.39, 121213.87, -96681.93, -91672.95, -187500.02, -144561.84, -177911.59, -187500.02, -0.23, 0.45, 0.89
183, -66765.82, 121157.23, -96699.25, -91688.73, -187500.02, -144577.58, -177933.88, -187500.02, 0.00, 0.00, 0.00
184, -66685.94, 121398.11, -96624.95, -91613.23, -187500.02, -144503.00, -177862.53, -187500.02, 0.00, 0.00, 0.00
185, -66658.38, 121479.34, -96603.03, -91588.75, -187500.02, -144478.83, -177836.89, -187500.02, 0.00, 0.00, 0.00
186, -66768.16, 121252.27, -96719.15, -91699.46, -187500.02, -144591.59, -177950.13, -187500.02, 0.00, 0.00, 0.00
187, -66801.80, 121131.38, -96759.31, -91734.66, -187500.02, -144628.28, -177991.70, -187500.02, 0.00, 0.00, 0.00
188, -66756.08, 121339.13, -96718.38, -91691.86, -187500.02, -144584.98, -177954.69, -187500.02, 0.00, 0.00, 0.00
189, -66687.45, 121470.69, -96650.75, -91626.70, -187500.02, -144518.89, -177889.61, -187500.02, 0.00, 0.00, 0.00
190, -66767.88, 121289.52, -96732.47, -91704.60, -187500.02, -144598.48, -177967.44, -187500.02, 0.00, 0.00, 0.00
191, -66822.52, 121085.92, -96790.43, -91758.11, -187500.02, -144652.94, -178026.16, -187500.02, 0.00, 0.00, 0.00
192, -66806.63, 121256.60, -96778.83, -91745.93, -187500.02, -144640.08, -178018.50, -187500.02, -0.23, 0.44, 0.88
193, -66745.15, 121445.92, -96721.43, -91688.22, -187500.02, -144581.92, -177965.20, -187500.02, 0.00, 0.00, 0.00
194, -66754.47, 121308.10, -96734.52, -91698.88, -187500.02, -144592.83, -177974.23, -187500.02, 0.00, 0.00, 0.00
195, -66862.23, 121132.46, -96846.08, -91805.54, -187500.02, -144699.41, -178084.41, -187500.02, 0.00, 0.00, 0.00
196, -66845.44, 121244.98, -96835.06, -91791.62, -187500.02, -144684.05, -178076.98, -187500.02, 0.00, 0.00, 0.00
197, -66780.35, 121526.14, -96772.23, -91729.14, -187500.02, -144620.63, -178016.03, -187500.02, 0.00, 0.00, 0.00
198, -66846.60, 121412.86, -96840.98, -91794.74, -187500.02, -144687.17, -178085.08, -187500.02, 0.00, 0.00, 0.00
199, -66882.20, 121172.89, -96883.23, -91833.16, -187500.02, -144725.17, -178132.36, -187500.02, 0.00, 0.00, 0.00
200, -66891.91, 121211.41, -96899.08, -91847.14, -187500.02, -144738.17, -178152.42, -187500.02, 0.00, 0.00, 0.00
201, -66790.84, 121517.40, -96805.09, -91751.09, -187500.02, -144644.58, -178056.97, -187500.02, 0.00, 0.00, 0.00
202, -66828.83, 121479.73, -96847.83, -91790.92, -187500.02, -144687.23, -178096.25, -187500.02, -0.23, 0.45, 0.88
203, -66846.87, 121185.16, -96870.71, -91812.40, -187500.02, -144708.58, -178120.28, -187500.02, 0.00, 0.00, 0.00
204, -66803.35, 121197.88, -96833.14, -91772.88, -187500.02, -144668.59, -178080.75, -187500.02, 0.00, 0.00, 0.00
205, -66838.24, 121533.20, -96872.41, -91809.09, -187500.02, -144705.70, -178120.95, -187500.02, 0.00, 0.00, 0.00
206, -66836.38, 121547.77, -96873.82, -91807.41, -187500.02, -144707.72, -178128.67, -187500.02, 0.00, 0.00, 0.00
207, -66869.22, 121270.55, -96912.66, -91842.76, -187500.02, -144745.13, -178174.02, -187500.02, 0.00, 0.00, 0.00
208, -66830.40, 121177.03, -96879.27, -91808.27, -187500.02, -144712.16, -178140.56, -187500.02, 0.00, 0.00, 0.00
209, -66805.49, 121499.14, -96857.13, -91786.41, -187500.02, -144691.70, -178113.27, -187500.02, 0.00, 0.00, 0.00
210, -66836.01, 121564.52, -96890.83, -91818.64, -187500.02, -144725.13, -178149.97, -187500.02, 0.00, 0.00, 0.00
211, -66857.66, 121317.58, -96916.73, -91840.68, -187500.02, -144750.41, -178182.13, -187500.02, -0.23, 0.46, 0.87
212, -66882.27, 121192.63, -96945.41, -91863.97, -187500.02, -144776.83, -178214.30, -187500.02, 0.00, 0.00, 0.00
213, -66802.77, 121452.18, -96870.24, -91786.92, -187500.02, -144700.81, -178133.92, -187500.02, 0.00, 0.00, 0.00
214, -66836.84, 121620.24, -96907.39, -91823.04, -187500.02, -144736.55, -178165.77, -187500.02, 0.00, 0.00, 0.00
215, -66937.26, 121376.67, -97009.38, -91922.28, -187500.02, -144836.50, -178272.30, -187500.02, 0.00, 0.00, 0.00
216, -66961.78, 121158.21, -97038.09, -91947.52, -187500.02, -144862.48, -178305.77, -187500.02, 0.00, 0.00, 0.00
217, -66884.69, 121337.09, -96968.03, -91876.41, -187500.02, -144791.91, -178238.42, -187500.02, 0.00, 0.00, 0.00
218, -66861.84, 121581.35, -96948.68, -91856.55, -187500.02, -144772.52, -178217.56, -187500.02, 0.00, 0.00, 0.00
219, -66986.74, 121381.86, -97079.08, -91982.59, -187500.02, -144898.86, -178345.17, -187500.02, 0.00, 0.00, 0.00
220, -67022.51, 121060.93, -97121.70, -92020.32, -187500.02, -144938.14, -178390.09, -187500.02, 0.00, 0.00, 0.00
221, -66980.17, 121081.72, -97085.52, -91981.83, -187500.02, -144901.27, -178357.34, -187500.02, -0.23, 0.46, 0.87
222, -66949.15, 121210.73, -97057.59, -91954.00, -187500.02, -144874.50, -178333.50, -187500.02, 0.00, 0.00, 0.00
223, -67006.52, 121055.44, -97116.72, -92010.73, -187500.02, -144934.27, -178392.23, -187500.02, 0.00, 0.00, 0.00
224, -67098.05, 120763.41, -97212.38, -92102.39, -187500.02, -145028.97, -178492.36, -187500.02, 0.00, 0.00, 0.00
225, -67070.03, 120742.69, -97187.98, -92076.13, -187500.02, -145004.91, -178474.20, -187500.02, 0.00, 0.00, 0.00
226, -67006.44, 121099.76, -97126.17, -92014.55, -187500.02, -144945.78, -178416.78, -187500.02, 0.00, 0.00, 0.00
227, -67014.08, 121267.84, -97135.45, -92021.93, -187500.02, -144955.44, -178425.52, -187500.02, 0.00, 0.00, 0.00
228, -67061.49, 121208.99, -97185.41, -92069.09, -187500.02, -145002.83, -178479.14, -187500.02, 0.00, 0.00, 0.00
229, -67011.84, 121301.64, -97139.27, -92020.45, -187500.02, -144955.95, -178437.80, -187500.02, 0.00, 0.00, 0.00
230, -66963.61, 121646.99, -97095.59, -91972.82, -187500.02, -144911.88, -178391.84, -187500.02, 0.00, 0.00, 0.00
231, -67047.36, 121623.15, -97185.05, -92055.25, -187500.02, -144996.56, -178477.89, -187500.02, -0.23, 0.46, 0.87
232, -67087.22, 121304.09, -97232.43, -92100.00, -187500.02, -145040.16, -178528.27, -187500.02, 0.00, 0.00, 0.00
233, -67048.13, 121161.65, -97198.73, -92065.73, -187500.02, -145006.72, -178500.48, -187500.02, 0.00, 0.00, 0.00
234, -66953.91, 121425.98, -97106.01, -91974.09, -187500.02, -144917.48, -178407.55, -187500.02, 0.00, 0.00, 0.00
235, -66973.80, 121545.34, -97125.39, -91991.10, -187500.02, -144938.08, -178421.88, -187500.02, 0.00, 0.00, 0.00
236, -67072.48, 121277.07, -97225.75, -92087.71, -187500.02, -145038.41, -178523.95, -187500.02, 0.00, 0.00, 0.00
237, -67074.23, 121130.45, -97232.97, -92093.12, -187500.02, -145043.53, -178532.73, -187500.02, 0.00, 0.00, 0.00
238, -67017.28, 121351.70, -97180.95, -92040.48, -187500.02, -144991.31, -178482.56, -187500.02, 0.00, 0.00, 0.00
239, -66990.34, 121501.80, -97157.93, -92017.63, -187500.02, -144968.97, -178459.09, -187500.02, 0.00, 0.00, 0.00
240, -67068.02, 121293.50, -97240.73, -92098.80, -187500.02, -145051.78, -178543.92, -187500.02, 0.00, 0.00, 0.00
241, -67068.95, 121092.74, -97248.68, -92104.56, -187500.02, -145060.33, -178555.67, -187500.02, -0.23, 0.45, 0.87
242, -67014.44, 121265.92, -97198.05, -92052.13, -187500.02, -145009.98, -178505.58, -187500.02, 0.00, 0.00, 0.00
243, -67042.36, 121495.98, -97227.58, -92078.25, -187500.02, -145039.17, -178533.86, -187500.02, 0.00, 0.00, 0.00
244, -67112.54, 121291.70, -97299.35, -92146.02, -187500.02, -145110.66, -178611.80, -187500.02, 0.00, 0.00, 0.00
245, -67131.83, 121092.94, -97320.56, -92165.27, -187500.02, -145133.05, -178638.31, -187500.02, 0.00, 0.00, 0.00
246, -67105.27, 121208.97, -97297.09, -92141.02, -187500.02, -145110.16, -178616.45, -187500.02, 0.00, 0.00, 0.00
247, -67005.81, 121458.95, -97200.31, -92042.89, -187500.02, -145015.00, -178516.41, -187500.02, 0.00, 0.00, 0.00
248, -67072.62, 121352.80, -97271.77, -92110.71, -187500.02, -145085.30, -178583.95, -187500.02, 0.00, 0.00, 0.00
249, -67147.23, 121081.27, -97350.49, -92185.95, -187500.02, -145163.67, -178665.36, -187500.02, 0.00, 0.00, 0.00
250, -67117.64, 121107.27, -97325.70, -92160.76, -187500.02, -145141.56, -178646.00, -187500.02, -0.23, 0.45, 0.88
251, -67025.99, 121388.56, -97238.16, -92074.12, -187500.02, -145057.03, -178562.97, -187500.02, 0.00, 0.00, 0.00
252, -67027.07, 121333.34, -97240.59, -92074.03, -187500.02, -145060.38, -178563.97, -187500.02, 0.00, 0.00, 0.00
253, -67134.87, 121078.63, -97351.14, -92180.96, -187500.02, -145170.08, -178677.42, -187500.02, 0.00, 0.00, 0.00
254, -67133.80, 121054.14, -97352.33, -92181.48, -187500.02, -145173.14, -178685.19, -187500.02, 0.00, 0.00, 0.00
255, -67074.34, 121353.16, -97295.28, -92122.04, -187500.02, -145118.45, -178631.48, -187500.02, 0.00, 0.00, 0.00
0, -67063.19, 121340.15, -97287.55, -92111.52, -187500.02, -145111.08, -178619.95, -187500.02, 0.00, 0.00, 0.00
1, -67141.62, 121067.52, -97370.39, -92191.53, -187500.02, -145192.48, -178705.55, -187500.02, 0.00, 0.00, 0.00
2, -67138.07, 121020.50, -97370.90, -92190.91, -187500.02, -145194.30, -178712.52, -187500.02, 0.00, 0.00, 0.00
3, -67096.05, 121280.00, -97330.91, -92150.41, -187500.02, -145155.98, -178677.09, -187500.02, 0.00, 0.00, 0.00
4, -67039.88, 121331.77, -97276.29, -92093.21, -187500.02, -145104.09, -178620.03, -187500.02, -0.23, 0.45, 0.88
5, -67129.55, 121115.16, -97368.98, -92179.69, -187500.02, -145193.58, -178709.34, -187500.02, 0.00, 0.00, 0.00
6, -67168.06, 120987.33, -97413.86, -92219.23, -187500.02, -145234.72, -178756.30, -187500.02, 0.00, 0.00, 0.00
7, -67087.93, 121222.18, -97336.01, -92140.62, -187500.02, -145156.58, -178682.66, -187500.02, 0.00, 0.00, 0.00
8, -67051.79, 121390.15, -97300.59, -92102.38, -187500.02, -145121.09, -178647.73, -187500.02, 0.00, 0.00, 0.00
9, -67159.66, 121177.36, -97412.16, -92208.30, -187500.02, -145227.80, -178757.88, -187500.02, 0.00, 0.00, 0.00
10, -67214.06, 120967.73, -97471.73, -92263.10, -187500.02, -145284.34, -178820.19, -187500.02, 0.00, 0.00, 0.00
11, -67184.23, 121128.37, -97446.90, -92235.63, -187500.02, -145258.47, -178798.84, -187500.02, 0.00, 0.00, 0.00
12, -67135.52, 121302.04, -97401.10, -92187.98, -187500.02, -145213.67, -178758.16, -187500.02, 0.00, 0.00, 0.00
13, -67141.51, 121134.27, -97407.38, -92190.26, -187500.02, -145220.95, -178763.13, -187500.02, 0.00, 0.00, 0.00
14, -67233.87, 120940.59, -97501.88, -92280.31, -187500.02, -145314.47, -178859.03, -187500.02, -0.23, 0.46, 0.88
15, -67231.12, 121042.88, -97504.72, -92279.45, -187500.02, -145315.70, -178864.94, -187500.02, 0.00, 0.00, 0.00
16, -67143.66, 121291.54, -97423.78, -92196.18, -187500.02, -145233.45, -178784.98, -187500.02, 0.00, 0.00, 0.00
17, -67200.47, 121195.91, -97484.49, -92254.30, -187500.02, -145292.17, -178846.09, -187500.02, 0.00, 0.00, 0.00
18, -67297.79, 120943.52, -97583.71, -92349.34, -187500.02, -145391.09, -178952.03, -187500.02, 0.00, 0.00, 0.00
19, -67287.11, 120954.90, -97575.13, -92339.79, -187500.02, -145383.91, -178950.98, -187500.02, 0.00, 0.00, 0.00
20, -67168.87, 121250.34, -97458.77, -92223.48, -187500.02, -145270.84, -178834.16, -187500.02, 0.00, 0.00, 0.00
21, -67210.69, 121228.19, -97502.06, -92261.78, -187500.02, -145313.38, -178874.05, -187500.02, 0.00, 0.00, 0.00
22, -67290.28, 120965.58, -97585.34, -92338.90, -187500.02, -145394.84, -178960.55, -187500.02, 0.00, 0.00, 0.00
23, -67264.82, 120937.62, -97563.70, -92314.98, -187500.02, -145372.52, -178942.63, -187500.02, -0.23, 0.46, 0.87
24, -67227.25, 121240.95, -97529.95, -92279.30, -187500.02, -145338.06, -178910.75, -187500.02, 0.00, 0.00, 0.00
25, -67226.69, 121275.35, -97531.77, -92278.62, -187500.02, -145340.63, -178910.16, -187500.02, 0.00, 0.00, 0.00
26, -67308.19, 121014.76, -97617.69, -92360.84, -187500.02, -145424.61, -178996.67, -187500.02, 0.00, 0.00, 0.00
27, -67314.53, 120938.11, -97630.41, -92370.68, -187500.02, -145435.00, -179012.08, -187500.02, 0.00, 0.00, 0.00
28, -67298.82, 121231.68, -97617.22, -92356.24, -187500.02, -145423.59, -179003.14, -187500.02, 0.00, 0.00, 0.00
29, -67256.93, 121289.62, -97578.91, -92316.13, -187500.02, -145387.30, -178968.44, -187500.02, 0.00, 0.00, 0.00
