%OpenBCI Raw EEG Data
%
%Sample Rate = 250.0 Hz
%First Column = SampleIndex
%Other Columns = EEG data in microvolts followed by Accel Data (in G) interleaved with Aux Data
0, -179528.44, -179672.38, -179715.39, -128080.48, 84646.68, 101594.29, -180061.25, -179924.55, -0.11, 0.26, 0.43
1, -179493.67, -179618.52, -179671.31, -128112.93, 84625.13, 101607.80, -180051.25, -179906.50, -0.11, 0.26, 0.43
2, -179610.91, -179606.16, -179672.81, -128228.42, 84533.69, 101546.01, -180044.08, -179913.86, -0.25, 0.50, 0.90
3, -179849.19, -179640.78, -179674.41, -128482.05, 84325.15, 101361.56, -180007.28, -179937.89, -0.25, 0.50, 0.90
4, -179910.08, -179653.75, -179688.34, -128707.64, 84140.45, 101204.41, -180033.94, -179916.94, -0.25, 0.50, 0.90
5, -179758.56, -179626.28, -179660.23, -128763.01, 84098.63, 101197.97, -180039.66, -179893.73, -0.25, 0.50, 0.90
6, -179643.11, -179617.25, -179655.77, -128876.20, 84004.58, 101137.20, -180025.69, -179885.69, -0.25, 0.50, 0.90
7, -179612.16, -179618.80, -179651.83, -129129.58, 83789.27, 100948.41, -179989.92, -179894.03, -0.25, 0.50, 0.89
8, -179545.45, -179627.69, -179671.61, -129384.70, 83577.06, 100763.09, -180008.03, -179892.44, -0.25, 0.50, 0.89
9, -179417.98, -179588.86, -179641.55, -129442.59, 83535.77, 100755.94, -180013.25, -179879.44, -0.25, 0.50, 0.89
10, -179486.00, -179553.55, -179622.36, -129516.35, 83479.02, 100730.91, -179998.30, -179866.50, -0.25, 0.50, 0.89
11, -179685.36, -179586.92, -179636.81, -129725.95, 83306.98, 100582.31, -179982.81, -179870.22, -0.25, 0.50, 0.89
12, -179876.55, -179609.20, -179646.42, -129994.43, 83086.53, 100384.70, -179982.47, -179866.78, -0.25, 0.49, 0.89
13, -179767.86, -179596.17, -179632.56, -130085.38, 83017.23, 100348.27, -180008.81, -179855.88, -0.25, 0.49, 0.89
14, -179627.86, -179569.89, -179611.48, -130157.60, 82960.38, 100325.33, -179989.47, -179845.84, -0.25, 0.49, 0.89
15, -179568.03, -179563.89, -179607.25, -130364.60, 82788.04, 100178.59, -179944.81, -179858.53, -0.25, 0.49, 0.89
16, -179544.38, -179571.05, -179620.00, -130656.60, 82545.84, 99959.88, -179947.70, -179863.13, -0.25, 0.49, 0.89
17, -179399.66, -179555.45, -179612.91, -130775.20, 82452.34, 99897.12, -179977.56, -179822.39, -0.25, 0.49, 0.88
18, -179403.81, -179503.64, -179573.28, -130816.80, 82424.94, 99902.08, -179953.19, -179820.25, -0.25, 0.49, 0.88
19, -179555.78, -179521.41, -179589.31, -130976.88, 82295.32, 99798.66, -179945.86, -179823.11, -0.25, 0.49, 0.88
20, -179800.13, -179562.83, -179597.52, -131251.42, 82069.30, 99594.25, -179920.30, -179845.17, -0.25, 0.49, 0.88
21, -179781.48, -179568.64, -179599.44, -131408.61, 81942.99, 99496.75, -179961.31, -179812.25, -0.25, 0.49, 0.88
22, -179625.39, -179531.53, -179565.81, -131457.73, 81909.53, 99496.87, -179946.38, -179799.02, -0.25, 0.49, 0.88
23, -179535.55, -179531.94, -179568.50, -131615.09, 81782.05, 99397.13, -179919.22, -179804.78, -0.26, 0.48, 0.85
24, -179519.81, -179536.27, -179570.58, -131901.47, 81542.83, 99181.37, -179893.42, -179810.95, -0.26, 0.48, 0.85
25, -179407.48, -179535.55, -179581.59, -132097.13, 81382.70, 99048.80, -179929.50, -179785.25, -0.26, 0.48, 0.85
26, -179337.83, -179484.48, -179537.98, -132132.36, 81361.98, 99062.21, -179915.59, -179775.52, -0.26, 0.48, 0.85
27, -179446.73, -179473.48, -179538.30, -132245.36, 81274.52, 99001.46, -179907.47, -179780.42, -0.26, 0.48, 0.85
28, -179684.02, -179508.80, -179543.33, -132495.92, 81069.15, 98816.19, -179875.13, -179799.64, -0.24, 0.48, 0.86
29, -179774.31, -179517.20, -179554.59, -132724.14, 80883.49, 98654.41, -179890.61, -179776.89, -0.24, 0.48, 0.86
30, -179626.25, -179490.61, -179528.33, -132781.11, 80844.18, 98648.46, -179898.36, -179753.59, -0.24, 0.48, 0.86
31, -179506.78, -179479.42, -179523.28, -132889.20, 80759.87, 98593.77, -179889.81, -179756.59, -0.24, 0.48, 0.86
32, -179470.52, -179477.11, -179519.39, -133135.81, 80554.55, 98412.80, -179854.80, -179781.69, -0.24, 0.48, 0.86
33, -179408.50, -179491.31, -179534.23, -133395.83, 80339.50, 98223.71, -179867.86, -179768.66, -0.24, 0.49, 0.87
34, -179294.48, -179457.33, -179505.67, -133460.98, 80294.02, 98211.26, -179875.67, -179730.75, -0.24, 0.49, 0.87
35, -179363.80, -179416.23, -179485.28, -133532.36, 80242.85, 98188.98, -179860.38, -179728.94, -0.24, 0.49, 0.87
36, -179566.84, -179447.83, -179500.28, -133736.88, 80074.07, 98043.42, -179843.72, -179743.80, -0.24, 0.49, 0.87
37, -179747.84, -179466.83, -179508.39, -134005.16, 79852.07, 97843.33, -179841.44, -179741.02, -0.24, 0.49, 0.87
38, -179638.33, -179457.05, -179495.36, -134100.97, 79777.62, 97802.06, -179868.06, -179711.06, -0.23, 0.51, 0.88
39, -179494.42, -179430.05, -179474.27, -134169.69, 79726.88, 97785.48, -179852.34, -179703.45, -0.23, 0.51, 0.88
40, -179430.05, -179433.83, -179471.67, -134370.39, 79562.22, 97647.55, -179813.97, -179721.97, -0.23, 0.51, 0.88
41, -179406.73, -179445.31, -179483.81, -134662.84, 79319.12, 97428.79, -179810.55, -179731.53, -0.23, 0.51, 0.88
42, -179271.88, -179438.02, -179478.72, -134789.02, 79220.48, 97361.00, -179831.53, -179685.59, -0.23, 0.51, 0.88
43, -179284.03, -179382.27, -179438.91, -134830.72, 79195.63, 97369.20, -179810.13, -179680.02, -0.23, 0.49, 0.88
44, -179437.98, -179394.53, -179451.69, -134986.78, 79069.70, 97268.55, -179809.67, -179693.73, -0.23, 0.49, 0.88
45, -179675.08, -179421.48, -179452.05, -135259.61, 78844.08, 97064.59, -179789.41, -179706.19, -0.23, 0.49, 0.88
46, -179649.14, -179420.44, -179456.94, -135422.00, 78712.88, 96963.79, -179823.06, -179675.47, -0.23, 0.49, 0.88
47, -179492.08, -179386.69, -179425.88, -135467.84, 78681.78, 96965.69, -179812.56, -179664.19, -0.23, 0.49, 0.88
48, -179398.02, -179389.86, -179429.83, -135615.83, 78562.13, 96872.05, -179790.97, -179667.39, -0.24, 0.49, 0.89
49, -179381.61, -179394.45, -179431.78, -135898.38, 78327.28, 96658.69, -179766.89, -179679.56, -0.24, 0.49, 0.89
50, -179271.69, -179399.88, -179442.19, -136097.83, 78165.68, 96524.48, -179805.39, -179658.67, -0.24, 0.49, 0.89
51, -179202.48, -179347.98, -179400.17, -136132.28, 78148.83, 96539.48, -179791.92, -179645.86, -0.24, 0.49, 0.89
52, -179313.83, -179334.48, -179400.27, -136243.84, 78064.83, 96481.37, -179773.17, -179644.08, -0.24, 0.49, 0.89
53, -179551.92, -179374.53, -179408.78, -136490.05, 77862.88, 96298.42, -179727.55, -179657.75, -0.24, 0.49, 0.89
54, -179644.97, -179383.63, -179417.73, -136718.44, 77675.95, 96133.66, -179754.31, -179635.23, -0.22, 0.49, 0.88
55, -179497.98, -179357.77, -179390.69, -136772.95, 77637.44, 96127.83, -179762.64, -179614.16, -0.22, 0.49, 0.88
56, -179376.14, -179344.89, -179384.64, -136873.14, 77557.66, 96076.73, -179751.38, -179614.55, -0.22, 0.49, 0.88
57, -179338.25, -179342.81, -179385.84, -137115.97, 77355.98, 95896.34, -179714.75, -179643.22, -0.22, 0.49, 0.88
58, -179284.25, -179353.45, -179395.08, -137378.67, 77138.51, 95701.80, -179732.19, -179636.25, -0.22, 0.49, 0.88
59, -179154.75, -179321.30, -179365.75, -137446.45, 77091.32, 95685.89, -179743.58, -179596.50, -0.23, 0.48, 0.90
60, -179216.84, -179281.56, -179347.13, -137514.72, 77044.00, 95668.32, -179728.06, -179592.03, -0.23, 0.48, 0.90
61, -179409.83, -179312.50, -179365.77, -137712.38, 76880.86, 95530.48, -179717.14, -179602.77, -0.23, 0.48, 0.90
62, -179608.48, -179337.03, -179371.94, -137979.64, 76659.53, 95330.73, -179707.14, -179600.70, -0.23, 0.48, 0.90
63, -179509.73, -179328.47, -179358.86, -138077.06, 76584.65, 95286.06, -179732.53, -179576.23, -0.23, 0.48, 0.90
64, -179365.45, -179297.06, -179333.94, -138142.69, 76538.90, 95270.71, -179715.86, -179575.16, -0.23, 0.48, 0.90
65, -179301.44, -179299.03, -179335.38, -138336.78, 76377.67, 95133.94, -179689.64, -179588.34, -0.23, 0.48, 0.90
66, -179284.86, -179302.80, -179344.16, -138625.83, 76136.55, 94914.76, -179680.75, -179602.03, -0.23, 0.48, 0.90
67, -179141.45, -179287.27, -179342.03, -138757.44, 76032.18, 94840.77, -179704.00, -179558.44, -0.23, 0.48, 0.90
68, -179126.92, -179234.97, -179304.03, -138797.48, 76007.22, 94847.84, -179686.98, -179552.08, -0.23, 0.48, 0.90
69, -179273.44, -179245.52, -179321.88, -138946.48, 75885.58, 94753.13, -179681.75, -179558.00, -0.21, 0.48, 0.88
70, -179518.59, -179284.16, -179326.75, -139213.72, 75663.73, 94553.98, -179649.75, -179569.73, -0.21, 0.48, 0.88
71, -179518.95, -179288.34, -179322.36, -139381.09, 75530.30, 94448.50, -179675.41, -179534.17, -0.21, 0.48, 0.88
72, -179361.80, -179253.41, -179290.95, -139425.53, 75502.09, 94453.30, -179668.44, -179527.06, -0.21, 0.48, 0.88
73, -179267.05, -179253.66, -179296.14, -139568.78, 75386.38, 94364.88, -179659.20, -179532.36, -0.21, 0.48, 0.88
74, -179249.78, -179252.98, -179296.56, -139844.38, 75156.24, 94156.20, -179629.34, -179562.69, -0.21, 0.48, 0.89
75, -179149.05, -179256.94, -179309.13, -140048.53, 74987.41, 94014.92, -179653.19, -179529.83, -0.21, 0.48, 0.89
76, -179063.91, -179210.11, -179270.13, -140084.72, 74966.81, 94026.66, -179646.44, -179504.84, -0.21, 0.48, 0.89
77, -179167.33, -179195.81, -179266.86, -140188.38, 74888.18, 93974.89, -179637.70, -179506.98, -0.21, 0.48, 0.89
78, -179399.05, -179236.22, -179270.75, -140426.08, 74693.27, 93801.41, -179609.81, -179526.23, -0.21, 0.48, 0.89
79, -179508.22, -179249.34, -179281.77, -140654.42, 74506.05, 93637.58, -179615.45, -179504.42, -0.20, 0.49, 0.89
80, -179365.44, -179223.56, -179254.25, -140708.30, 74466.84, 93629.84, -179622.91, -179478.91, -0.20, 0.49, 0.89
81, -179243.80, -179207.78, -179246.72, -140805.61, 74390.16, 93581.86, -179618.05, -179485.33, -0.20, 0.49, 0.89
82, -179205.23, -179202.94, -179243.95, -141040.22, 74193.69, 93407.55, -179590.30, -179521.66, -0.20, 0.49, 0.89
83, -179153.38, -179216.14, -179262.50, -141301.89, 73976.38, 93212.78, -179597.16, -179515.58, -0.20, 0.49, 0.89
84, -179026.88, -179188.63, -179243.03, -141372.34, 73925.40, 93194.05, -179609.09, -179465.77, -0.20, 0.49, 0.89
85, -179084.97, -179146.25, -179218.63, -141434.45, 73882.59, 93180.27, -179593.73, -179465.88, -0.21, 0.49, 0.89
86, -179278.55, -179180.36, -179221.11, -141630.34, 73725.05, 93042.62, -179572.50, -179472.75, -0.21, 0.49, 0.89
87, -179471.67, -179206.16, -179230.63, -141900.92, 73505.81, 92842.44, -179566.13, -179469.22, -0.21, 0.49, 0.89
88, -179371.33, -179195.58, -179226.23, -141998.13, 73432.30, 92797.65, -179595.05, -179442.81, -0.21, 0.49, 0.89
89, -179225.80, -179165.86, -179201.27, -142056.42, 73390.41, 92786.54, -179578.64, -179441.98, -0.21, 0.49, 0.89
90, -179159.33, -179167.55, -179198.83, -142244.84, 73235.35, 92655.64, -179550.58, -179454.78, -0.22, 0.49, 0.88
91, -179140.08, -179175.17, -179207.31, -142530.28, 72998.90, 92439.15, -179540.52, -179477.73, -0.22, 0.49, 0.88
92, -179005.70, -179165.78, -179207.11, -142662.47, 72894.60, 92363.75, -179569.48, -179433.61, -0.22, 0.49, 0.88
93, -179000.19, -179113.91, -179168.88, -142696.89, 72876.88, 92375.02, -179552.98, -179418.59, -0.22, 0.49, 0.88
94, -179144.58, -179124.44, -179177.61, -142841.97, 72761.01, 92284.41, -179540.36, -179415.81, -0.22, 0.49, 0.88
95, -179388.34, -179156.84, -179179.27, -143108.31, 72540.28, 92085.14, -179512.64, -179421.45, -0.22, 0.49, 0.88
96, -179382.33, -179157.14, -179192.05, -143270.59, 72408.67, 91980.60, -179555.92, -179405.83, -0.22, 0.49, 0.88
97, -179225.80, -179126.78, -179158.50, -143310.48, 72383.51, 91987.04, -179544.56, -179394.33, -0.22, 0.49, 0.88
98, -179129.69, -179125.98, -179158.53, -143449.27, 72272.66, 91901.30, -179518.50, -179405.72, -0.22, 0.49, 0.88
99, -179115.09, -179126.56, -179160.47, -143724.06, 72044.72, 91693.47, -179487.16, -179418.72, -0.22, 0.49, 0.88
100, -179020.14, -179131.33, -179170.44, -143932.42, 71875.56, 91549.73, -179518.50, -179392.86, -0.22, 0.49, 0.89
101, -178928.88, -179083.56, -179131.09, -143967.77, 71856.97, 91562.27, -179511.91, -179374.27, -0.22, 0.49, 0.89
102, -179030.47, -179064.33, -179129.91, -144065.80, 71782.34, 91516.02, -179507.95, -179371.33, -0.22, 0.49, 0.89
103, -179257.86, -179103.38, -179137.95, -144296.08, 71593.38, 91347.89, -179482.16, -179390.94, -0.22, 0.49, 0.89
104, -179366.89, -179120.14, -179150.92, -144522.89, 71408.75, 91185.08, -179488.61, -179373.25, -0.22, 0.49, 0.89
105, -179225.80, -179093.70, -179126.16, -144575.55, 71370.99, 91179.16, -179499.97, -179350.33, -0.22, 0.49, 0.88
106, -179103.61, -179077.30, -179115.55, -144667.45, 71299.05, 91136.20, -179485.86, -179351.44, -0.22, 0.49, 0.88
107, -179065.00, -179072.48, -179115.00, -144901.14, 71105.10, 90965.41, -179444.47, -179377.13, -0.22, 0.49, 0.88
108, -179019.39, -179086.03, -179128.69, -145164.42, 70887.68, 90770.43, -179460.25, -179371.41, -0.22, 0.49, 0.88
109, -178891.53, -179059.45, -179103.98, -145234.02, 70839.25, 90750.74, -179474.98, -179329.33, -0.22, 0.49, 0.88
110, -178947.77, -179016.59, -179079.72, -145291.23, 70801.70, 90739.12, -179459.11, -179327.34, -0.22, 0.49, 0.87
111, -179135.30, -179047.17, -179095.06, -145476.22, 70652.54, 90610.02, -179450.91, -179341.55, -0.22, 0.49, 0.87
112, -179333.45, -179073.30, -179100.44, -145738.02, 70438.10, 90415.58, -179432.11, -179341.92, -0.22, 0.49, 0.87
113, -179241.58, -179064.27, -179091.83, -145839.56, 70361.34, 90367.41, -179461.05, -179304.81, -0.22, 0.49, 0.87
114, -179096.34, -179035.52, -179066.30, -145894.50, 70325.47, 90359.88, -179448.41, -179309.63, -0.22, 0.49, 0.87
115, -179027.63, -179031.86, -179068.16, -146075.42, 70179.55, 90234.70, -179425.98, -179331.34, -0.22, 0.49, 0.87
116, -179012.45, -179037.44, -179077.08, -146360.09, 69945.89, 90019.99, -179415.75, -179352.56, -0.21, 0.50, 0.88
117, -178876.84, -179030.45, -179076.72, -146495.56, 69840.02, 89941.72, -179443.69, -179306.06, -0.21, 0.50, 0.88
118, -178860.44, -178979.91, -179039.50, -146528.78, 69823.23, 89954.99, -179429.42, -179283.38, -0.21, 0.50, 0.88
119, -179001.50, -178987.11, -179050.34, -146666.63, 69713.03, 89870.15, -179415.95, -179288.16, -0.21, 0.50, 0.88
120, -179245.98, -179020.64, -179054.55, -146926.11, 69499.23, 89676.56, -179383.94, -179291.14, -0.21, 0.50, 0.88
121, -179252.73, -179025.23, -179052.48, -147094.83, 69365.71, 89565.98, -179418.20, -179266.33, -0.21, 0.50, 0.88
122, -179098.36, -178990.66, -179019.72, -147135.14, 69342.95, 89571.33, -179411.33, -179261.19, -0.21, 0.50, 0.88
123, -179001.50, -178989.70, -179026.53, -147269.25, 69235.95, 89489.72, -179394.61, -179266.81, -0.21, 0.50, 0.88
124, -178983.86, -178989.72, -179028.50, -147537.05, 69014.90, 89287.44, -179361.97, -179296.91, -0.21, 0.50, 0.88
125, -178891.27, -178993.86, -179037.42, -147746.97, 68845.67, 89140.72, -179384.36, -179267.64, -0.21, 0.50, 0.88
126, -178792.17, -178949.31, -179001.19, -147781.89, 68827.37, 89151.72, -179381.14, -179242.23, -0.21, 0.51, 0.88
127, -178885.59, -178928.25, -178997.70, -147873.45, 68760.06, 89107.80, -179375.89, -179240.44, -0.21, 0.51, 0.88
128, -179106.67, -178967.03, -179005.69, -148095.23, 68580.83, 88946.06, -179347.38, -179271.31, -0.21, 0.51, 0.88
129, -179239.89, -178989.88, -179018.84, -148323.41, 68396.42, 88781.88, -179362.70, -179258.09, -0.21, 0.51, 0.88
130, -179105.84, -178966.70, -178997.41, -148378.25, 68360.22, 88773.55, -179376.81, -179223.52, -0.21, 0.51, 0.88
131, -178984.53, -178949.45, -178983.63, -148465.95, 68293.80, 88732.31, -179356.34, -179219.33, -0.21, 0.51, 0.88
132, -178949.38, -178944.48, -178981.56, -148696.06, 68103.66, 88560.38, -179312.23, -179222.63, -0.21, 0.51, 0.88
133, -178906.19, -178955.19, -178998.38, -148957.77, 67889.22, 88365.83, -179335.58, -179223.66, -0.21, 0.51, 0.88
134, -178763.38, -178925.50, -178973.00, -149023.36, 67843.38, 88350.34, -179354.06, -179205.97, -0.21, 0.51, 0.88
135, -178808.63, -178881.09, -178946.31, -149074.00, 67810.90, 88346.45, -179331.34, -179193.61, -0.21, 0.51, 0.88
136, -178995.56, -178913.09, -178954.86, -149257.86, 67662.62, 88218.40, -179299.91, -179178.69, -0.22, 0.51, 0.89
137, -179204.05, -178939.28, -178962.95, -149522.53, 67447.26, 88020.09, -179298.61, -179190.55, -0.22, 0.51, 0.89
138, -179116.41, -178929.69, -178960.00, -149621.41, 67373.20, 87972.87, -179337.11, -179183.78, -0.22, 0.51, 0.89
139, -178969.58, -178898.84, -178933.64, -149671.09, 67339.48, 87969.22, -179317.67, -179169.20, -0.22, 0.51, 0.89
140, -178900.50, -178897.88, -178926.05, -149848.28, 67195.02, 87848.74, -179282.73, -179189.91, -0.22, 0.51, 0.89
141, -178886.56, -178903.95, -178934.56, -150130.97, 66962.63, 87635.29, -179272.63, -179225.36, -0.21, 0.51, 0.88
142, -178752.80, -178898.55, -178944.69, -150270.64, 66853.13, 87552.41, -179306.92, -179169.13, -0.21, 0.51, 0.88
143, -178726.27, -178843.59, -178901.44, -150298.02, 66842.95, 87572.12, -179285.92, -179154.08, -0.21, 0.51, 0.88
144, -178857.89, -178847.95, -178910.16, -150428.44, 66742.58, 87493.95, -179281.97, -179156.53, -0.21, 0.51, 0.88
145, -179103.88, -178890.28, -178913.77, -150682.00, 66536.23, 87303.63, -179253.20, -179180.45, -0.21, 0.51, 0.88
146, -179131.92, -178904.45, -178927.45, -150850.95, 66403.14, 87192.34, -179291.41, -179155.02, -0.21, 0.51, 0.88
147, -178977.75, -178871.44, -178893.44, -150884.64, 66383.47, 87200.84, -179282.23, -179133.16, -0.20, 0.52, 0.86
148, -178879.94, -178865.22, -178890.55, -151012.16, 66283.49, 87124.10, -179260.09, -179130.25, -0.20, 0.52, 0.86
149, -178864.17, -178862.56, -178889.56, -151279.38, 66064.58, 86924.30, -179229.27, -179139.14, -0.20, 0.52, 0.86
150, -178779.39, -178865.69, -178903.42, -151491.98, 65893.30, 86775.17, -179256.67, -179122.31, -0.20, 0.52, 0.86
151, -178660.33, -178820.56, -178866.20, -151522.06, 65877.98, 86789.07, -179252.20, -179108.34, -0.20, 0.52, 0.86
152, -178747.13, -178798.45, -178860.84, -151606.92, 65818.02, 86751.79, -179242.23, -179106.72, -0.19, 0.52, 0.86
153, -178968.20, -178835.05, -178876.78, -151827.59, 65642.16, 86590.99, -179213.20, -179129.48, -0.19, 0.52, 0.86
154, -179113.23, -178849.22, -178883.03, -152058.73, 65454.87, 86421.74, -179224.13, -179116.81, -0.19, 0.52, 0.86
155, -178982.30, -178829.80, -178861.83, -152110.59, 65418.43, 86413.16, -179241.19, -179089.59, -0.19, 0.52, 0.86
156, -178858.16, -178813.66, -178849.88, -152191.61, 65358.53, 86377.51, -179226.86, -179082.81, -0.19, 0.52, 0.86
157, -178817.23, -178810.94, -178840.45, -152413.91, 65177.33, 86213.56, -179185.81, -179103.61, -0.18, 0.51, 0.87
158, -178782.75, -178818.17, -178859.77, -152679.36, 64960.05, 86014.45, -179195.58, -179099.09, -0.18, 0.51, 0.87
159, -178630.44, -178788.89, -178844.03, -152753.42, 64907.12, 85990.24, -179209.67, -179055.38, -0.18, 0.51, 0.87
160, -178657.33, -178742.22, -178814.06, -152797.48, 64883.67, 85993.04, -179191.22, -179064.42, -0.18, 0.51, 0.87
161, -178828.91, -178770.14, -178825.03, -152970.28, 64747.12, 85875.09, -179183.73, -179079.02, -0.18, 0.51, 0.87
162, -179052.98, -178806.59, -178829.17, -153229.39, 64536.64, 85681.07, -179165.94, -179089.45, -0.18, 0.52, 0.87
163, -178986.14, -178803.58, -178828.64, -153336.11, 64456.39, 85625.71, -179196.70, -179048.28, -0.18, 0.52, 0.87
164, -178839.92, -178771.13, -178802.28, -153382.94, 64426.71, 85620.66, -179183.14, -179041.41, -0.18, 0.52, 0.87
165, -178770.00, -178766.55, -178795.67, -153554.02, 64287.44, 85500.41, -179152.94, -179048.70, -0.18, 0.52, 0.87
166, -178758.66, -178770.67, -178802.75, -153835.41, 64055.63, 85284.89, -179143.06, -179058.95, -0.18, 0.52, 0.87
167, -178625.17, -178763.20, -178808.09, -153978.53, 63945.43, 85197.80, -179170.14, -179018.17, -0.18, 0.53, 0.88
168, -178582.86, -178708.47, -178763.59, -154000.19, 63938.70, 85219.27, -179151.14, -179015.47, -0.18, 0.53, 0.88
169, -178711.48, -178710.84, -178777.66, -154124.80, 63842.68, 85143.89, -179153.45, -179019.08, -0.18, 0.53, 0.88
170, -178954.03, -178750.73, -178790.41, -154371.94, 63641.83, 84957.75, -179123.34, -179047.66, -0.18, 0.53, 0.88
171, -178993.97, -178768.94, -178792.22, -154545.98, 63504.30, 84840.96, -179144.58, -179015.56, -0.18, 0.53, 0.88
172, -178844.06, -178736.92, -178763.69, -154582.02, 63482.53, 84849.03, -179145.19, -178991.83, -0.19, 0.53, 0.88
173, -178742.22, -178730.83, -178760.23, -154702.44, 63386.82, 84779.18, -179128.80, -179003.98, -0.19, 0.53, 0.88
174, -178722.52, -178728.67, -178759.33, -154962.61, 63174.16, 84583.06, -179094.70, -179020.72, -0.19, 0.53, 0.88
175, -178635.88, -178736.14, -178771.13, -155177.61, 63003.44, 84430.90, -179123.55, -178997.61, -0.19, 0.53, 0.88
176, -178530.23, -178690.25, -178731.52, -155209.41, 62990.36, 84445.87, -179119.70, -178973.56, -0.19, 0.53, 0.88
177, -178619.47, -178664.34, -178724.23, -155289.95, 62932.83, 84411.34, -179108.80, -178974.02, -0.19, 0.53, 0.88
178, -178838.11, -178702.41, -178734.48, -155505.89, 62758.49, 84252.41, -179077.41, -178997.14, -0.19, 0.52, 0.88
179, -178976.64, -178727.20, -178751.28, -155739.86, 62569.15, 84082.52, -179090.84, -178985.86, -0.19, 0.52, 0.88
180, -178847.50, -178709.05, -178736.14, -155798.34, 62527.82, 84072.77, -179111.58, -178958.50, -0.19, 0.52, 0.88
181, -178720.86, -178688.48, -178719.48, -155876.80, 62471.47, 84042.94, -179094.03, -178953.92, -0.19, 0.52, 0.88
182, -178676.63, -178682.80, -178706.13, -156093.88, 62294.49, 83884.48, -179049.25, -178971.50, -0.19, 0.52, 0.88
183, -178640.59, -178692.05, -178727.02, -156358.22, 62079.66, 83686.70, -179059.86, -178967.91, -0.19, 0.52, 0.88
184, -178494.77, -178666.16, -178713.45, -156434.36, 62027.86, 83660.99, -179076.14, -178924.55, -0.19, 0.52, 0.88
185, -178526.86, -178619.17, -178683.23, -156476.11, 62004.83, 83662.66, -179057.88, -178932.55, -0.19, 0.52, 0.88
186, -178694.50, -178644.08, -178690.39, -156645.78, 61873.29, 83546.91, -179057.50, -178940.77, -0.19, 0.52, 0.88
187, -178922.63, -178674.55, -178695.13, -156903.42, 61666.52, 83353.32, -179036.59, -178947.17, -0.19, 0.52, 0.88
188, -178867.02, -178675.08, -178695.64, -157014.72, 61582.50, 83293.23, -179064.61, -178911.17, -0.19, 0.52, 0.87
189, -178720.94, -178642.38, -178667.41, -157059.53, 61554.15, 83293.08, -179053.42, -178908.97, -0.19, 0.52, 0.87
190, -178648.22, -178643.94, -178666.56, -157226.53, 61418.68, 83179.58, -179018.58, -178911.14, -0.19, 0.52, 0.87
191, -178635.05, -178647.00, -178672.00, -157504.17, 61190.85, 82969.20, -179006.52, -178922.67, -0.19, 0.52, 0.87
192, -178502.03, -178637.42, -178679.13, -157649.13, 61079.89, 82880.76, -179046.44, -178892.25, -0.19, 0.52, 0.87
193, -178456.97, -178588.89, -178638.59, -157672.95, 61071.67, 82900.70, -179026.17, -178885.83, -0.20, 0.52, 0.86
194, -178585.27, -178591.38, -178647.72, -157794.75, 60978.46, 82829.13, -179019.83, -178887.78, -0.20, 0.52, 0.86
195, -178828.41, -178625.28, -178653.23, -158042.94, 60777.48, 82643.25, -178985.36, -178901.66, -0.20, 0.52, 0.86
196, -178865.58, -178639.27, -178667.14, -158223.02, 60635.07, 82520.83, -179020.05, -178878.59, -0.20, 0.52, 0.86
197, -178714.34, -178610.64, -178638.58, -158259.38, 60615.65, 82528.72, -179017.47, -178870.05, -0.20, 0.52, 0.86
198, -178611.42, -178600.98, -178631.11, -158376.39, 60524.03, 82458.96, -179001.75, -178869.41, -0.19, 0.52, 0.86
199, -178588.11, -178590.13, -178621.36, -158628.17, 60316.09, 82268.52, -178963.80, -178903.30, -0.19, 0.52, 0.86
200, -178506.30, -178594.88, -178636.34, -158842.73, 60141.64, 82115.01, -178985.70, -178878.81, -0.19, 0.52, 0.86
201, -178400.44, -178553.75, -178602.61, -158879.38, 60121.68, 82123.86, -178987.78, -178844.84, -0.19, 0.52, 0.86
202, -178487.59, -178526.70, -178595.30, -158958.98, 60068.28, 82093.22, -178981.47, -178845.52, -0.19, 0.52, 0.86
203, -178702.28, -178568.39, -178608.33, -159167.17, 59902.07, 81943.03, -178964.20, -178855.61, -0.20, 0.51, 0.87
204, -178855.88, -178594.09, -178617.97, -159401.50, 59714.65, 81773.72, -178963.75, -178847.30, -0.20, 0.51, 0.87
205, -178731.30, -178575.70, -178602.25, -159462.02, 59675.13, 81762.61, -178982.59, -178830.28, -0.20, 0.51, 0.87
206, -178603.22, -178557.03, -178585.61, -159535.69, 59622.74, 81734.98, -178965.09, -178820.25, -0.20, 0.51, 0.87
207, -178557.06, -178554.58, -178575.72, -159744.20, 59452.49, 81582.08, -178915.98, -178837.94, -0.20, 0.51, 0.87
208, -178523.84, -178559.00, -178592.25, -160006.00, 59237.29, 81383.77, -178929.58, -178836.30, -0.20, 0.51, 0.87
209, -178374.52, -178534.91, -178582.52, -160085.33, 59180.69, 81353.04, -178954.72, -178801.39, -0.20, 0.52, 0.87
210, -178397.95, -178491.69, -178554.27, -160124.69, 59159.68, 81356.37, -178935.67, -178798.22, -0.20, 0.52, 0.87
211, -178563.44, -178515.23, -178563.78, -160286.61, 59032.39, 81245.98, -178926.88, -178811.42, -0.20, 0.52, 0.87
212, -178792.16, -178545.61, -178567.39, -160544.17, 58824.85, 81052.34, -178904.30, -178817.59, -0.20, 0.52, 0.87
213, -178739.55, -178545.75, -178570.67, -160659.42, 58738.53, 80987.97, -178931.50, -178781.50, -0.20, 0.52, 0.87
214, -178593.50, -178513.59, -178543.50, -160700.56, 58714.39, 80990.13, -178921.48, -178780.95, -0.20, 0.52, 0.87
215, -178515.80, -178509.58, -178539.58, -160858.02, 58588.93, 80885.13, -178901.77, -178797.00, -0.20, 0.52, 0.87
216, -178495.53, -178509.31, -178542.02, -161126.80, 58371.49, 80683.67, -178883.69, -178830.17, -0.20, 0.52, 0.87
217, -178369.39, -178508.05, -178552.77, -161276.84, 58255.95, 80590.35, -178912.34, -178778.05, -0.20, 0.52, 0.87
218, -178330.33, -178459.03, -178514.48, -161301.06, 58251.73, 80611.56, -178898.53, -178760.13, -0.20, 0.52, 0.87
219, -178454.95, -178459.58, -178517.31, -161415.94, 58167.08, 80544.93, -178891.88, -178764.94, -0.20, 0.52, 0.87
220, -178696.17, -178491.95, -178515.83, -161656.19, 57971.88, 80363.82, -178856.11, -178786.50, -0.20, 0.52, 0.87
221, -178749.05, -178501.88, -178528.89, -161837.33, 57828.95, 80240.73, -178882.25, -178757.11, -0.20, 0.52, 0.87
222, -178600.98, -178476.02, -178503.08, -161872.77, 57810.93, 80248.88, -178885.44, -178736.14, -0.20, 0.52, 0.87
223, -178496.48, -178467.97, -178495.61, -161984.97, 57726.04, 80185.61, -178867.95, -178734.64, -0.20, 0.52, 0.87
224, -178470.05, -178459.03, -178485.88, -162232.23, 57526.59, 80000.27, -178829.95, -178757.73, -0.19, 0.53, 0.87
225, -178388.97, -178467.30, -178504.13, -162448.88, 57355.45, 79844.88, -178857.88, -178738.16, -0.19, 0.53, 0.87
226, -178280.88, -178428.00, -178474.31, -162483.88, 57341.18, 79854.76, -178860.80, -178714.70, -0.19, 0.53, 0.87
227, -178365.42, -178400.22, -178465.75, -162558.86, 57293.18, 79828.56, -178848.81, -178713.97, -0.19, 0.53, 0.87
228, -178579.61, -178439.42, -178469.42, -162765.23, 57130.90, 79681.58, -178817.91, -178736.02, -0.19, 0.53, 0.87
229, -178726.83, -178457.84, -178480.91, -162998.75, 56943.35, 79511.70, -178829.50, -178725.38, -0.18, 0.52, 0.86
230, -178603.83, -178442.95, -178468.97, -163057.36, 56904.45, 79500.21, -178853.05, -178695.34, -0.18, 0.52, 0.86
231, -178475.23, -178423.22, -178451.77, -163126.28, 56858.86, 79477.99, -178832.33, -178690.28, -0.18, 0.52, 0.86
232, -178424.50, -178417.47, -178443.16, -163331.14, 56695.67, 79331.30, -178793.98, -178699.38, -0.18, 0.52, 0.86
233, -178395.56, -178422.28, -178455.31, -163594.84, 56484.22, 79133.95, -178802.13, -178696.95, -0.18, 0.52, 0.86
234, -178245.56, -178399.06, -178441.33, -163680.77, 56426.82, 79100.43, -178820.52, -178652.50, -0.18, 0.52, 0.87
235, -178258.38, -178354.59, -178409.88, -163716.20, 56411.51, 79113.02, -178803.09, -178661.58, -0.18, 0.52, 0.87
236, -178419.94, -178379.91, -178420.77, -163873.75, 56287.73, 79008.23, -178787.70, -178678.98, -0.18, 0.52, 0.87
237, -178656.86, -178416.30, -178427.47, -164130.50, 56081.73, 78815.55, -178767.92, -178703.73, -0.18, 0.52, 0.87
238, -178619.73, -178416.72, -178434.11, -164250.05, 55993.75, 78749.24, -178801.70, -178661.80, -0.18, 0.52, 0.87
239, -178468.91, -178384.77, -178401.77, -164283.23, 55978.20, 78761.29, -178786.28, -178647.89, -0.18, 0.52, 0.87
240, -178385.00, -178382.63, -178400.70, -164431.83, 55862.28, 78666.65, -178770.08, -178651.11, -0.19, 0.53, 0.87
241, -178370.92, -178382.89, -178406.28, -164701.97, 55642.36, 78462.69, -178755.14, -178673.58, -0.19, 0.53, 0.87
242, -178250.80, -178378.61, -178412.27, -164861.30, 55520.14, 78363.89, -178779.61, -178639.42, -0.19, 0.53, 0.87
243, -178192.44, -178328.00, -178373.75, -164881.59, 55520.39, 78390.94, -178764.27, -178624.67, -0.19, 0.53, 0.87
244, -178313.20, -178322.25, -178379.23, -164990.42, 55442.23, 78332.67, -178753.69, -178625.55, -0.19, 0.53, 0.87
245, -178553.69, -178357.55, -178379.56, -165229.47, 55248.86, 78154.21, -178718.70, -178645.38, -0.18, 0.52, 0.86
246, -178605.56, -178373.11, -178399.30, -165417.13, 55101.16, 78025.84, -178752.84, -178624.94, -0.18, 0.52, 0.86
247, -178455.73, -178343.44, -178370.98, -165449.39, 55088.98, 78041.23, -178751.39, -178607.23, -0.18, 0.52, 0.86
248, -178344.61, -178332.58, -178360.70, -165551.34, 55016.36, 77990.84, -178734.89, -178600.42, -0.18, 0.52, 0.86
249, -178315.61, -178326.30, -178351.02, -165792.63, 54822.64, 77810.47, -178696.84, -178640.08, -0.18, 0.52, 0.86
250, -178238.64, -178343.72, -178373.44, -166018.30, 54644.61, 77647.59, -178731.83, -178624.11, -0.19, 0.52, 0.87
251, -178147.11, -178309.22, -178343.78, -166055.28, 54632.73, 77657.29, -178735.03, -178584.89, -0.19, 0.52, 0.87
252, -178230.39, -178278.27, -178329.47, -166120.28, 54593.95, 77638.27, -178716.25, -178579.53, -0.19, 0.52, 0.87
253, -178440.27, -178305.83, -178332.11, -166318.50, 54437.34, 77495.75, -178689.55, -178595.64, -0.19, 0.52, 0.87
254, -178593.42, -178325.92, -178344.41, -166559.19, 54245.29, 77318.52, -178690.44, -178588.59, -0.19, 0.52, 0.87
255, -178474.83, -178316.44, -178331.13, -166624.81, 54204.97, 77302.48, -178709.55, -178556.53, -0.17, 0.52, 0.86
0, -178338.73, -178292.03, -178311.92, -166684.02, 54171.15, 77290.97, -178694.50, -178553.44, -0.17, 0.52, 0.86
1, -178280.23, -178284.70, -178312.36, -166875.25, 54020.57, 77155.29, -178665.42, -178588.31, -0.17, 0.52, 0.86
2, -178251.22, -178289.75, -178322.75, -167140.86, 53808.45, 76956.49, -178662.27, -178607.13, -0.17, 0.52, 0.86
3, -178109.52, -178277.55, -178318.66, -167235.77, 53744.95, 76916.26, -178685.81, -178548.30, -0.17, 0.52, 0.86
4, -178124.89, -178231.83, -178286.92, -167268.48, 53734.51, 76930.19, -178667.70, -178535.33, -0.18, 0.52, 0.86
5, -178277.39, -178252.83, -178295.36, -167418.73, 53621.43, 76834.34, -178659.56, -178545.69, -0.18, 0.52, 0.86
6, -178512.14, -178283.75, -178297.05, -167670.64, 53421.45, 76646.72, -178634.89, -178555.55, -0.18, 0.52, 0.86
7, -178482.98, -178282.78, -178304.06, -167797.31, 53331.11, 76576.63, -178667.56, -178522.08, -0.18, 0.52, 0.86
8, -178332.78, -178251.25, -178275.39, -167830.13, 53320.96, 76590.51, -178654.45, -178515.55, -0.18, 0.52, 0.86
9, -178247.06, -178244.73, -178274.41, -167970.81, 53213.22, 76502.27, -178641.30, -178524.53, -0.19, 0.53, 0.86
10, -178225.05, -178241.91, -178272.86, -168232.44, 53003.36, 76304.47, -178623.98, -178552.25, -0.19, 0.53, 0.86
11, -178110.30, -178251.72, -178290.50, -168393.61, 52885.30, 76202.91, -178650.88, -178516.50, -0.19, 0.53, 0.86
12, -178082.44, -178202.81, -178253.39, -168416.39, 52888.85, 76228.59, -178639.53, -178498.92, -0.19, 0.53, 0.86
13, -178200.81, -178194.38, -178250.78, -168519.14, 52818.18, 76178.27, -178626.06, -178503.64, -0.19, 0.53, 0.86
14, -178434.34, -178233.31, -178244.61, -168749.67, 52633.95, 76008.09, -178585.17, -178528.58, -0.19, 0.53, 0.86
15, -178489.11, -178245.88, -178263.31, -168940.67, 52485.27, 75876.33, -178613.56, -178496.23, -0.20, 0.53, 0.87
16, -178342.81, -178220.95, -178237.81, -168976.03, 52475.05, 75888.87, -178614.95, -178473.06, -0.20, 0.53, 0.87
17, -178229.36, -178212.38, -178233.50, -169071.81, 52411.89, 75842.73, -178608.17, -178475.34, -0.20, 0.53, 0.87
18, -178195.83, -178205.20, -178223.91, -169303.23, 52229.48, 75672.48, -178574.56, -178502.67, -0.20, 0.53, 0.87
19, -178126.97, -178211.25, -178239.16, -169530.56, 52051.82, 75512.04, -178588.17, -178487.39, -0.20, 0.53, 0.87
20, -178016.75, -178182.17, -178215.50, -169575.48, 52031.93, 75517.84, -178596.09, -178451.52, -0.21, 0.54, 0.88
21, -178091.00, -178152.00, -178200.14, -169635.92, 51999.12, 75504.39, -178585.00, -178449.92, -0.21, 0.54, 0.88
22, -178288.55, -178182.38, -178201.59, -169822.80, 51857.34, 75374.70, -178570.92, -178472.14, -0.21, 0.54, 0.88
23, -178456.59, -178196.23, -178212.33, -170056.89, 51677.90, 75206.45, -178561.78, -178470.14, -0.21, 0.54, 0.88
24, -178348.75, -178186.95, -178209.80, -170127.64, 51638.29, 75188.34, -178586.63, -178434.23, -0.21, 0.54, 0.88
25, -178216.95, -178164.56, -178190.77, -170186.36, 51605.50, 75176.71, -178572.91, -178429.66, -0.22, 0.54, 0.88
26, -178158.84, -178153.81, -178175.81, -170371.31, 51462.79, 75046.85, -178532.97, -178442.27, -0.22, 0.54, 0.88
27, -178125.61, -178154.17, -178187.97, -170626.08, 51261.76, 74857.29, -178531.41, -178441.95, -0.22, 0.54, 0.88
28, -177987.94, -178143.67, -178189.58, -170720.63, 51200.34, 74816.94, -178561.78, -178408.31, -0.22, 0.54, 0.88
29, -178008.81, -178098.88, -178160.34, -170755.14, 51192.60, 74828.88, -178544.55, -178407.06, -0.22, 0.54, 0.88
30, -178160.30, -178114.55, -178161.64, -170895.84, 51090.48, 74739.29, -178535.89, -178415.39, -0.22, 0.53, 0.86
31, -178388.02, -178151.48, -178157.86, -171131.67, 50907.19, 74565.46, -178505.73, -178417.11, -0.22, 0.53, 0.86
32, -178358.02, -178156.78, -178172.95, -171248.95, 50825.50, 74502.27, -178543.98, -178393.33, -0.22, 0.53, 0.86
33, -178216.64, -178127.84, -178148.73, -171287.20, 50812.87, 74510.79, -178533.86, -178382.61, -0.22, 0.53, 0.86
34, -178133.08, -178120.86, -178135.11, -171427.23, 50713.78, 74425.02, -178503.11, -178387.30, -0.22, 0.53, 0.86
35, -178111.25, -178110.94, -178127.45, -171680.75, 50517.54, 74237.61, -178474.36, -178392.17, -0.21, 0.52, 0.86
36, -177993.08, -178111.45, -178149.70, -171837.41, 50405.35, 74140.47, -178515.80, -178368.55, -0.21, 0.52, 0.86
37, -177941.00, -178069.34, -178116.31, -171859.73, 50410.13, 74164.52, -178505.86, -178364.98, -0.21, 0.52, 0.86
38, -178055.98, -178059.58, -178119.50, -171956.08, 50349.74, 74117.00, -178501.30, -178367.39, -0.21, 0.52, 0.86
39, -178282.98, -178097.98, -178113.77, -172169.52, 50188.85, 73963.88, -178463.11, -178384.08, -0.21, 0.52, 0.86
40, -178351.77, -178111.36, -178128.38, -172347.75, 50061.16, 73846.09, -178487.30, -178359.77, -0.19, 0.53, 0.85
41, -178212.11, -178087.39, -178111.02, -172384.14, 50056.02, 73857.90, -178494.78, -178345.69, -0.19, 0.53, 0.85
42, -178103.75, -178076.20, -178097.73, -172476.94, 49998.91, 73816.21, -178474.69, -178340.31, -0.19, 0.53, 0.85
43, -178069.64, -178061.88, -178082.84, -172697.89, 49829.64, 73655.68, -178432.89, -178342.03, -0.19, 0.53, 0.85
44, -177994.41, -178070.13, -178104.02, -172909.77, 49671.12, 73508.52, -178469.11, -178328.94, -0.19, 0.53, 0.85
45, -177889.58, -178041.72, -178085.59, -172947.36, 49667.72, 73523.22, -178481.83, -178317.31, -0.19, 0.53, 0.85
46, -177967.53, -178009.55, -178073.13, -173002.00, 49649.14, 73517.97, -178464.88, -178317.50, -0.19, 0.53, 0.86
47, -178161.09, -178042.95, -178072.14, -173174.09, 49527.53, 73402.37, -178428.52, -178336.45, -0.19, 0.53, 0.86
48, -178323.55, -178070.91, -178082.28, -173392.38, 49368.88, 73250.24, -178426.97, -178324.09, -0.19, 0.53, 0.86
49, -178215.91, -178061.28, -178080.67, -173456.70, 49343.55, 73238.55, -178460.20, -178301.05, -0.19, 0.53, 0.86
50, -178084.44, -178038.92, -178063.63, -173509.91, 49325.56, 73234.68, -178443.64, -178294.42, -0.19, 0.53, 0.86
51, -178024.58, -178023.39, -178049.31, -173686.61, 49201.35, 73116.66, -178398.31, -178292.28, -0.18, 0.54, 0.85
52, -177988.59, -178023.08, -178058.30, -173929.94, 49021.46, 72939.95, -178400.75, -178293.78, -0.18, 0.54, 0.85
53, -177851.91, -178013.56, -178054.14, -174013.00, 48980.58, 72912.17, -178436.94, -178285.91, -0.18, 0.54, 0.85
54, -177875.42, -177969.44, -178026.13, -174036.88, 48991.58, 72937.52, -178417.08, -178277.16, -0.18, 0.54, 0.85
55, -178025.45, -177986.89, -178026.86, -174166.73, 48910.44, 72862.20, -178389.63, -178266.72, -0.18, 0.54, 0.85
56, -178251.41, -178021.27, -178026.56, -174391.30, 48750.85, 72703.92, -178364.70, -178269.73, -0.16, 0.54, 0.85
57, -178220.00, -178022.16, -178037.05, -174501.78, 48688.76, 72650.43, -178419.03, -178262.38, -0.16, 0.54, 0.85
58, -178075.38, -177995.88, -178012.08, -174525.80, 48698.55, 72673.63, -178402.72, -178255.25, -0.16, 0.54, 0.85
59, -177989.02, -177982.22, -178004.53, -174649.22, 48623.04, 72603.67, -178373.63, -178257.55, -0.16, 0.54, 0.85
60, -177964.14, -177970.48, -177999.63, -174890.08, 48449.80, 72429.10, -178341.80, -178266.69, -0.16, 0.54, 0.85
61, -177847.55, -177976.81, -178024.48, -175038.88, 48358.80, 72343.01, -178379.61, -178236.52, -0.15, 0.55, 0.85
62, -177807.89, -177931.33, -177993.17, -175050.75, 48387.68, 72382.41, -178369.31, -178232.42, -0.15, 0.55, 0.85
63, -177921.58, -177920.48, -177989.14, -175133.95, 48352.79, 72352.93, -178363.09, -178229.25, -0.15, 0.55, 0.85
64, -178146.91, -177962.84, -177978.64, -175335.48, 48216.42, 72214.77, -178328.45, -178235.58, -0.15, 0.55, 0.85
65, -178216.23, -177979.47, -178000.30, -175504.75, 48107.84, 72108.31, -178360.77, -178219.08, -0.15, 0.55, 0.85
66, -178074.86, -177954.92, -177979.53, -175528.11, 48123.55, 72133.52, -178364.28, -178208.69, -0.14, 0.55, 0.85
67, -177962.44, -177941.83, -177968.31, -175605.09, 48094.00, 72108.55, -178346.17, -178207.17, -0.14, 0.55, 0.85
68, -177925.33, -177923.92, -177951.58, -175813.16, 47952.16, 71964.19, -178300.39, -178217.98, -0.14, 0.55, 0.85
69, -177849.56, -177933.33, -177974.16, -176018.94, 47815.23, 71825.41, -178326.14, -178201.63, -0.14, 0.55, 0.85
70, -177743.25, -177902.42, -177953.41, -176047.16, 47831.39, 71849.19, -178336.22, -178185.80, -0.14, 0.55, 0.85
71, -177818.38, -177866.91, -177934.81, -176091.44, 47834.92, 71860.03, -178319.34, -178180.14, -0.15, 0.55, 0.86
72, -178004.81, -177901.64, -177927.02, -176253.89, 47735.88, 71760.36, -178290.73, -178193.83, -0.15, 0.55, 0.86
73, -178180.48, -177934.23, -177941.16, -176463.75, 47595.27, 71618.30, -178286.50, -178187.81, -0.15, 0.55, 0.86
74, -178077.61, -177924.17, -177941.38, -176517.17, 47589.25, 71619.34, -178316.11, -178169.14, -0.15, 0.55, 0.86
75, -177943.53, -177900.92, -177921.75, -176556.98, 47594.80, 71629.94, -178299.28, -178157.30, -0.15, 0.55, 0.86
76, -177880.14, -177884.03, -177908.77, -176716.94, 47494.46, 71528.64, -178274.95, -178168.47, -0.15, 0.55, 0.86
77, -177837.61, -177891.98, -177915.61, -176950.42, 47333.33, 71363.59, -178266.69, -178170.94, -0.15, 0.55, 0.85
78, -177713.28, -177887.97, -177916.11, -177024.45, 47310.89, 71343.37, -178297.31, -178144.05, -0.15, 0.55, 0.85
79, -177746.59, -177834.88, -177883.25, -177033.45, 47347.12, 71381.50, -178275.50, -178136.83, -0.15, 0.55, 0.85
80, -177890.80, -177845.42, -177892.81, -177148.31, 47291.13, 71320.59, -178264.13, -178146.58, -0.15, 0.55, 0.85
81, -178115.95, -177881.80, -177887.67, -177366.14, 47145.21, 71167.80, -178231.70, -178151.91, -0.15, 0.55, 0.85
82, -178089.64, -177883.36, -177898.36, -177476.17, 47091.08, 71116.63, -178276.81, -178124.89, -0.16, 0.55, 0.87
83, -177943.19, -177854.86, -177874.59, -177492.00, 47117.23, 71149.83, -178263.67, -178115.33, -0.16, 0.55, 0.87
84, -177853.81, -177849.52, -177873.14, -177608.05, 47056.52, 71089.01, -178239.42, -178114.70, -0.16, 0.55, 0.87
85, -177833.73, -177838.55, -177865.78, -177834.72, 46893.80, 70920.43, -178216.06, -178160.19, -0.16, 0.55, 0.87
86, -177748.02, -177847.80, -177888.05, -177805.70, 46780.66, 70810.34, -178247.31, -178137.83, -0.16, 0.55, 0.87
87, -177669.52, -177824.08, -177877.41, -177607.33, 46799.14, 70837.75, -178261.23, -178095.36, -0.19, 0.53, 0.88
88, -177773.41, -177812.45, -177858.59, -177657.45, 46774.93, 70816.18, -178230.72, -178098.97, -0.19, 0.53, 0.88
89, -178012.61, -177837.67, -177846.56, -177843.58, 46630.48, 70669.24, -178183.56, -178112.16, -0.19, 0.53, 0.88
90, -178109.52, -177844.20, -177863.16, -177808.59, 46492.25, 70531.13, -178220.20, -178099.52, -0.19, 0.53, 0.88
91, -177987.31, -177840.95, -177859.23, -177609.77, 46493.06, 70540.27, -178249.09, -178075.81, -0.19, 0.53, 0.88
92, -177876.88, -177827.39, -177838.25, -177653.05, 46464.04, 70517.02, -178216.11, -178078.72, -0.20, 0.54, 0.89
93, -177851.38, -177822.42, -177827.28, -177839.14, 46313.55, 70366.82, -178175.83, -178096.14, -0.20, 0.54, 0.89
94, -177837.67, -177832.95, -177847.66, -177833.36, 46144.71, 70199.70, -178200.33, -178096.17, -0.20, 0.54, 0.89
95, -177681.77, -177812.41, -177844.38, -177616.50, 46130.64, 70193.80, -178225.63, -178064.72, -0.20, 0.54, 0.89
96, -177676.78, -177792.19, -177829.44, -177583.53, 46137.42, 70203.79, -178215.55, -178062.38, -0.20, 0.54, 0.89
97, -177866.17, -177807.42, -177820.50, -177752.89, 46036.70, 70098.60, -178173.22, -178080.50, -0.21, 0.53, 0.87
98, -178075.42, -177808.97, -177828.75, -177842.25, 45870.92, 69929.76, -178171.73, -178089.59, -0.21, 0.53, 0.87
99, -178006.92, -177814.77, -177832.95, -177643.75, 45830.08, 69896.27, -178211.59, -178051.52, -0.21, 0.53, 0.87
100, -177880.20, -177800.44, -177815.56, -177578.17, 45828.20, 69899.96, -178200.42, -178041.58, -0.21, 0.53, 0.87
101, -177824.39, -177783.16, -177791.88, -177747.81, 45719.64, 69789.16, -178143.64, -178051.73, -0.21, 0.53, 0.87
102, -177828.34, -177798.33, -177810.48, -177839.91, 45529.18, 69596.53, -178157.88, -178068.05, -0.22, 0.52, 0.86
103, -177710.84, -177788.92, -177816.80, -177658.00, 45463.20, 69534.73, -178184.55, -178036.69, -0.22, 0.52, 0.86
104, -177620.48, -177762.28, -177799.66, -177534.16, 45486.43, 69561.20, -178188.95, -178028.44, -0.22, 0.52, 0.86
105, -177760.58, -177764.58, -177786.48, -177656.27, 45425.58, 69497.54, -178160.47, -178031.22, -0.22, 0.52, 0.86
106, -178004.59, -177770.28, -177787.61, -177808.70, 45255.82, 69323.35, -178133.45, -178055.98, -0.22, 0.52, 0.86
107, -178007.19, -177782.73, -177801.33, -177674.09, 45161.45, 69233.92, -178168.36, -178024.83, -0.22, 0.52, 0.86
108, -177875.20, -177774.22, -177791.06, -177529.19, 45171.58, 69251.38, -178180.28, -178009.00, -0.22, 0.52, 0.86
109, -177788.39, -177751.39, -177769.91, -177644.55, 45107.47, 69186.72, -178134.77, -178018.98, -0.22, 0.52, 0.86
110, -177784.56, -177751.92, -177772.33, -177800.67, 44927.41, 69002.25, -178119.45, -178044.02, -0.22, 0.52, 0.86
111, -177725.22, -177759.53, -177784.36, -177697.59, 44805.01, 68878.33, -178147.28, -178020.48, -0.22, 0.52, 0.86
112, -177577.61, -177736.08, -177767.34, -177507.31, 44822.46, 68900.05, -178162.02, -177991.98, -0.22, 0.52, 0.86
113, -177652.75, -177725.69, -177757.61, -177560.67, 44801.99, 68878.26, -178133.63, -177990.42, -0.22, 0.52, 0.87
114, -177890.55, -177738.52, -177746.30, -177747.33, 44666.29, 68733.13, -178080.70, -178004.17, -0.22, 0.52, 0.87
115, -178009.83, -177748.00, -177761.31, -177721.08, 44529.10, 68591.00, -178110.58, -177993.06, -0.22, 0.52, 0.87
116, -177892.19, -177748.84, -177758.30, -177512.31, 44531.69, 68597.97, -178140.53, -177976.19, -0.22, 0.52, 0.87
117, -177779.11, -177727.41, -177739.81, -177539.23, 44512.78, 68578.70, -178118.00, -177971.67, -0.22, 0.52, 0.87
118, -177749.63, -177709.34, -177726.36, -177724.25, 44373.57, 68430.89, -178076.47, -177987.73, -0.21, 0.52, 0.87
119, -177732.48, -177726.94, -177747.69, -177722.06, 44209.92, 68262.20, -178099.91, -177990.42, -0.21, 0.52, 0.87
120, -177577.14, -177710.53, -177744.78, -177509.25, 44203.73, 68257.51, -178124.91, -177957.00, -0.21, 0.52, 0.87
121, -177582.34, -177685.80, -177730.56, -177480.53, 44221.07, 68272.64, -178116.13, -177957.00, -0.21, 0.52, 0.87
122, -177775.39, -177698.84, -177718.73, -177642.88, 44133.72, 68175.43, -178078.39, -177975.00, -0.21, 0.52, 0.87
123, -177972.66, -177702.67, -177722.27, -177737.48, 43975.89, 68008.45, -178069.50, -177980.44, -0.21, 0.52, 0.88
124, -177901.27, -177713.70, -177730.14, -177537.75, 43942.63, 67974.73, -178099.41, -177942.70, -0.21, 0.52, 0.88
125, -177769.55, -177699.92, -177717.95, -177455.50, 43957.59, 67987.16, -178102.20, -177941.58, -0.21, 0.52, 0.88
126, -177704.00, -177679.13, -177701.14, -177613.19, 43872.25, 67893.22, -178053.08, -177966.84, -0.21, 0.52, 0.88
127, -177699.92, -177685.95, -177713.55, -177736.30, 43703.71, 67713.53, -178050.06, -177993.97, -0.21, 0.52, 0.88
128, -177581.16, -177678.55, -177710.38, -177558.88, 43648.84, 67655.27, -178078.27, -177942.48, -0.20, 0.53, 0.87
129, -177512.11, -177652.75, -177694.89, -177422.08, 43685.23, 67686.65, -178085.73, -177922.94, -0.20, 0.53, 0.87
130, -177646.47, -177657.22, -177687.44, -177526.06, 43646.54, 67635.17, -178055.58, -177937.05, -0.20, 0.53, 0.87
131, -177890.98, -177666.88, -177684.61, -177699.02, 43503.91, 67476.65, -178026.31, -177951.48, -0.20, 0.53, 0.87
132, -177909.98, -177684.03, -177695.53, -177578.50, 43427.76, 67392.74, -178062.08, -177922.81, -0.20, 0.53, 0.87
133, -177773.61, -177673.39, -177684.22, -177417.13, 43460.75, 67420.33, -178075.98, -177908.95, -0.19, 0.53, 0.86
134, -177682.66, -177647.88, -177663.30, -177514.84, 43423.09, 67369.83, -178028.33, -177906.83, -0.19, 0.53, 0.86
135, -177671.89, -177641.89, -177661.63, -177680.17, 43270.96, 67200.59, -178002.31, -177935.50, -0.19, 0.53, 0.86
136, -177603.88, -177651.33, -177678.41, -177577.81, 43171.39, 67087.51, -178039.59, -177913.83, -0.19, 0.53, 0.86
137, -177470.70, -177626.64, -177664.27, -177387.66, 43212.61, 67122.29, -178054.45, -177891.45, -0.19, 0.53, 0.86
138, -177551.03, -177616.36, -177655.97, -177430.58, 43217.30, 67113.21, -178033.45, -177886.78, -0.19, 0.53, 0.86
139, -177779.78, -177633.58, -177644.27, -177617.03, 43112.18, 66986.52, -177986.78, -177889.33, -0.18, 0.53, 0.85
140, -177894.78, -177639.86, -177657.05, -177614.05, 43003.05, 66857.06, -178015.13, -177886.28, -0.18, 0.53, 0.85
141, -177773.72, -177639.67, -177652.08, -177400.73, 43033.45, 66873.47, -178043.80, -177871.31, -0.18, 0.53, 0.85
142, -177657.42, -177622.84, -177636.59, -177414.28, 43044.41, 66867.27, -178015.67, -177860.83, -0.18, 0.53, 0.85
143, -177622.36, -177603.36, -177611.25, -177597.34, 42937.95, 66736.56, -177963.17, -177859.47, -0.18, 0.53, 0.85
144, -177590.34, -177616.61, -177634.42, -177606.44, 42808.68, 66584.52, -177992.56, -177870.48, -0.17, 0.54, 0.85
145, -177444.30, -177599.06, -177631.91, -177386.95, 42835.02, 66597.89, -178024.19, -177864.31, -0.17, 0.54, 0.85
146, -177478.48, -177569.58, -177613.69, -177352.64, 42880.95, 66625.61, -178005.98, -177852.64, -0.17, 0.54, 0.85
147, -177665.34, -177591.31, -177609.22, -177500.81, 42823.46, 66540.98, -177953.31, -177843.30, -0.17, 0.54, 0.85
148, -177861.86, -177601.39, -177616.25, -177610.52, 42699.23, 66389.46, -177959.95, -177845.09, -0.17, 0.54, 0.85
149, -177783.75, -177609.56, -177624.08, -177409.23, 42702.85, 66372.56, -178007.36, -177835.14, -0.17, 0.54, 0.86
150, -177647.69, -177589.72, -177606.53, -177335.03, 42750.41, 66400.30, -177990.59, -177830.78, -0.17, 0.54, 0.86
151, -177580.89, -177566.08, -177586.45, -177479.38, 42694.58, 66317.45, -177930.92, -177823.00, -0.17, 0.54, 0.86
152, -177567.95, -177572.41, -177593.80, -177606.83, 42557.45, 66150.63, -177935.66, -177830.92, -0.17, 0.54, 0.86
153, -177438.89, -177571.39, -177605.30, -177420.19, 42539.53, 66110.83, -177980.98, -177826.20, -0.17, 0.54, 0.86
154, -177408.92, -177537.13, -177582.23, -177290.95, 42610.20, 66160.40, -177975.80, -177815.52, -0.17, 0.54, 0.85
155, -177543.59, -177543.47, -177574.13, -177380.02, 42601.80, 66121.76, -177937.94, -177813.58, -0.17, 0.54, 0.85
156, -177782.22, -177560.52, -177568.31, -177558.56, 42491.18, 65977.19, -177904.33, -177815.31, -0.17, 0.54, 0.85
157, -177794.28, -177562.19, -177583.53, -177446.06, 42448.51, 65906.89, -177952.38, -177807.88, -0.17, 0.54, 0.85
158, -177652.94, -177550.52, -177569.92, -177282.19, 42513.62, 65946.38, -177958.86, -177798.33, -0.17, 0.54, 0.85
159, -177555.34, -177534.22, -177551.64, -177360.50, 42507.36, 65911.45, -177918.69, -177786.86, -0.17, 0.54, 0.85
160, -177535.56, -177524.20, -177540.17, -177540.53, 42391.22, 65760.46, -177887.63, -177795.61, -0.17, 0.54, 0.85
161, -177455.83, -177532.23, -177561.48, -177455.66, 42319.70, 65659.39, -177927.41, -177784.41, -0.17, 0.54, 0.85
162, -177347.94, -177503.91, -177542.25, -177263.16, 42392.99, 65707.96, -177937.42, -177778.44, -0.17, 0.54, 0.85
163, -177432.61, -177488.45, -177538.31, -177290.05, 42429.55, 65711.69, -177925.94, -177779.17, -0.17, 0.54, 0.85
164, -177646.11, -177519.02, -177526.88, -177459.41, 42354.23, 65599.33, -177882.95, -177792.09, -0.17, 0.55, 0.86
165, -177783.17, -177530.09, -177539.08, -177468.75, 42266.81, 65481.07, -177904.05, -177779.31, -0.17, 0.55, 0.86
166, -177662.19, -177523.84, -177533.64, -177267.81, 42318.85, 65508.56, -177934.19, -177761.83, -0.17, 0.55, 0.86
167, -177538.20, -177503.13, -177520.66, -177276.80, 42355.06, 65515.11, -177910.25, -177762.28, -0.17, 0.55, 0.86
168, -177491.27, -177476.56, -177505.80, -177448.95, 42275.66, 65402.07, -177851.59, -177778.61, -0.17, 0.55, 0.86
169, -177458.00, -177492.78, -177520.95, -177493.91, 42159.25, 65251.40, -177871.17, -177778.38, -0.17, 0.55, 0.86
170, -177319.94, -177484.63, -177510.98, -177269.05, 42194.59, 65261.53, -177897.91, -177744.83, -0.16, 0.54, 0.84
171, -177352.53, -177452.73, -177494.09, -177213.88, 42259.05, 65297.49, -177887.92, -177743.50, -0.16, 0.54, 0.84
172, -177518.00, -177473.50, -177492.94, -177343.73, 42222.46, 65223.46, -177860.73, -177753.22, -0.16, 0.54, 0.84
173, -177736.53, -177483.39, -177494.95, -177480.88, 42113.95, 65077.79, -177844.44, -177764.80, -0.16, 0.54, 0.84
174, -177682.77, -177493.56, -177503.28, -177298.81, 42120.09, 65056.67, -177888.13, -177731.41, -0.16, 0.54, 0.84
175, -177543.77, -177471.55, -177487.42, -177216.56, 42177.02, 65087.03, -177879.11, -177719.94, -0.15, 0.53, 0.85
176, -177467.34, -177459.33, -177471.58, -177346.73, 42135.41, 65012.21, -177827.05, -177721.94, -0.15, 0.53, 0.85
177, -177450.45, -177460.03, -177475.03, -177487.28, 42004.20, 64847.57, -177823.28, -177763.55, -0.15, 0.53, 0.85
178, -177325.41, -177458.27, -177490.88, -177315.58, 41976.24, 64794.98, -177862.14, -177723.31, -0.15, 0.53, 0.85
179, -177279.97, -177424.55, -177468.31, -177183.30, 42047.47, 64841.78, -177860.52, -177701.70, -0.15, 0.53, 0.85
180, -177405.36, -177425.22, -177462.05, -177266.61, 42040.70, 64805.50, -177835.50, -177707.73, -0.17, 0.55, 0.85
181, -177641.89, -177438.20, -177453.75, -177439.23, 41928.70, 64661.49, -177798.63, -177739.75, -0.17, 0.55, 0.85
182, -177676.63, -177456.48, -177473.67, -177335.16, 41869.80, 64579.73, -177836.47, -177710.20, -0.17, 0.55, 0.85
183, -177534.95, -177442.00, -177460.31, -177173.53, 41923.00, 64615.20, -177848.22, -177690.08, -0.17, 0.55, 0.85
184, -177433.06, -177424.03, -177440.70, -177252.25, 41908.38, 64577.59, -177803.58, -177679.63, -0.17, 0.55, 0.85
185, -177411.72, -177414.81, -177435.86, -177436.80, 41778.05, 64418.48, -177770.69, -177692.36, -0.17, 0.55, 0.84
186, -177332.75, -177430.95, -177449.69, -177363.70, 41683.16, 64302.03, -177814.47, -177680.81, -0.17, 0.55, 0.84
187, -177233.39, -177406.66, -177430.20, -177162.53, 41733.81, 64337.68, -177827.20, -177668.02, -0.17, 0.55, 0.84
188, -177320.89, -177389.58, -177423.77, -177190.59, 41749.05, 64333.62, -177812.45, -177663.27, -0.17, 0.55, 0.84
189, -177534.52, -177402.86, -177416.89, -177365.94, 41654.44, 64213.83, -177771.02, -177682.64, -0.17, 0.55, 0.84
190, -177669.55, -177411.06, -177427.52, -177384.31, 41539.08, 64077.73, -177780.42, -177671.58, -0.19, 0.53, 0.85
191, -177554.81, -177415.47, -177427.47, -177175.33, 41561.28, 64088.21, -177809.80, -177647.19, -0.19, 0.53, 0.85
192, -177430.13, -177395.86, -177413.05, -177177.91, 41574.40, 64086.70, -177792.98, -177645.22, -0.19, 0.53, 0.85
193, -177382.80, -177376.75, -177395.63, -177356.03, 41469.88, 63963.40, -177741.98, -177666.88, -0.19, 0.53, 0.85
194, -177357.48, -177387.23, -177410.84, -177402.48, 41322.50, 63799.50, -177760.16, -177673.11, -0.19, 0.53, 0.85
195, -177214.22, -177374.00, -177409.92, -177185.20, 41321.04, 63790.65, -177789.17, -177634.88, -0.21, 0.52, 0.85
196, -177230.58, -177347.16, -177395.08, -177126.48, 41354.73, 63812.91, -177782.28, -177628.14, -0.21, 0.52, 0.85
197, -177400.22, -177361.41, -177381.16, -177269.53, 41287.67, 63727.04, -177738.56, -177632.17, -0.21, 0.52, 0.85
198, -177616.55, -177371.09, -177383.91, -177387.70, 41143.01, 63562.97, -177735.39, -177638.34, -0.21, 0.52, 0.85
199, -177557.69, -177385.42, -177398.53, -177202.25, 41117.11, 63527.52, -177781.39, -177616.83, -0.21, 0.52, 0.85
200, -177416.23, -177364.06, -177379.73, -177125.44, 41147.62, 63551.28, -177771.02, -177612.70, -0.21, 0.52, 0.85
201, -177341.14, -177337.66, -177363.67, -177269.38, 41075.04, 63466.14, -177718.77, -177618.69, -0.22, 0.52, 0.86
202, -177331.48, -177345.64, -177373.31, -177387.59, 40907.09, 63283.00, -177718.45, -177633.69, -0.22, 0.52, 0.86
203, -177214.50, -177351.36, -177374.66, -177220.89, 40845.11, 63213.14, -177746.75, -177596.05, -0.22, 0.52, 0.86
204, -177173.88, -177322.47, -177355.09, -177091.05, 40888.20, 63250.36, -177750.45, -177590.39, -0.22, 0.52, 0.86
205, -177299.06, -177323.42, -177355.83, -177183.80, 40856.75, 63206.37, -177731.03, -177597.67, -0.22, 0.52, 0.86
206, -177534.11, -177332.28, -177348.95, -177353.80, 40720.68, 63053.78, -177695.98, -177638.50, -0.23, 0.52, 0.87
207, -177574.36, -177348.81, -177361.11, -177252.75, 40630.06, 62957.04, -177724.80, -177608.00, -0.23, 0.52, 0.87
208, -177437.22, -177341.80, -177350.89, -177078.42, 40657.22, 62982.23, -177743.70, -177575.44, -0.23, 0.52, 0.87
209, -177333.44, -177323.05, -177338.17, -177153.94, 40627.27, 62941.66, -177712.61, -177581.67, -0.23, 0.52, 0.87
210, -177310.61, -177317.55, -177333.33, -177336.41, 40478.43, 62775.77, -177680.98, -177607.48, -0.23, 0.52, 0.87
211, -177248.09, -177325.02, -177345.08, -177273.67, 40353.48, 62641.05, -177701.59, -177588.61, -0.22, 0.52, 0.87
212, -177126.66, -177303.28, -177333.39, -177069.19, 40375.63, 62661.23, -177718.42, -177555.81, -0.22, 0.52, 0.87
213, -177198.75, -177285.56, -177324.58, -177089.72, 40378.76, 62657.10, -177710.56, -177556.47, -0.22, 0.52, 0.87
214, -177406.89, -177301.91, -177309.88, -177266.56, 40273.02, 62535.35, -177668.02, -177587.02, -0.22, 0.52, 0.87
215, -177560.28, -177306.61, -177320.67, -177293.89, 40138.52, 62388.19, -177676.33, -177588.52, -0.22, 0.52, 0.87
216, -177452.33, -177312.47, -177320.36, -177082.11, 40142.52, 62389.28, -177708.16, -177547.19, -0.22, 0.53, 0.86
217, -177323.92, -177293.83, -177307.16, -177074.17, 40147.44, 62388.79, -177688.50, -177544.19, -0.22, 0.53, 0.86
218, -177271.44, -177275.23, -177286.81, -177252.86, 40036.91, 62266.23, -177637.52, -177576.64, -0.22, 0.53, 0.86
219, -177246.22, -177289.19, -177301.45, -177303.22, 39876.65, 62092.27, -177654.39, -177597.55, -0.22, 0.53, 0.86
220, -177114.20, -177286.31, -177307.23, -177093.17, 39858.39, 62069.23, -177682.03, -177534.30, -0.22, 0.53, 0.86
221, -177133.83, -177259.30, -177291.06, -177023.13, 39889.73, 62093.61, -177678.02, -177521.61, -0.21, 0.54, 0.87
222, -177293.67, -177267.86, -177275.52, -177161.42, 39824.64, 62014.55, -177639.83, -177539.72, -0.21, 0.54, 0.87
223, -177509.92, -177267.25, -177276.63, -177288.02, 39677.68, 61851.93, -177628.84, -177564.69, -0.21, 0.54, 0.87
224, -177464.39, -177278.88, -177291.73, -177110.13, 39635.30, 61804.20, -177667.69, -177520.28, -0.21, 0.54, 0.87
225, -177326.23, -177263.91, -177279.03, -177010.03, 39660.51, 61824.95, -177666.52, -177500.31, -0.21, 0.54, 0.87
226, -177245.28, -177233.80, -177253.64, -177145.55, 39592.36, 61745.66, -177607.16, -177507.09, -0.21, 0.54, 0.88
227, -177230.02, -177237.80, -177260.55, -177276.42, 39427.38, 61564.21, -177611.20, -177525.19, -0.21, 0.54, 0.88
228, -177117.41, -177245.69, -177271.59, -177120.58, 39357.15, 61484.95, -177645.33, -177498.02, -0.21, 0.54, 0.88
229, -177063.47, -177216.22, -177252.55, -176983.94, 39400.16, 61520.78, -177650.52, -177492.09, -0.21, 0.54, 0.88
230, -177177.11, -177214.66, -177245.45, -177067.42, 39378.43, 61485.15, -177618.98, -177496.83, -0.21, 0.54, 0.88
231, -177406.02, -177232.47, -177234.38, -177239.50, 39250.46, 61342.59, -177573.73, -177516.75, -0.21, 0.54, 0.88
232, -177471.22, -177242.33, -177256.50, -177150.89, 39162.31, 61245.99, -177613.89, -177493.45, -0.20, 0.53, 0.87
233, -177338.05, -177237.97, -177250.67, -176986.00, 39188.55, 61269.23, -177636.70, -177471.30, -0.20, 0.53, 0.87
234, -177230.19, -177210.92, -177229.72, -177060.14, 39162.07, 61234.32, -177598.66, -177472.70, -0.20, 0.53, 0.87
235, -177198.64, -177191.38, -177215.36, -177228.30, 39020.80, 61076.68, -177560.38, -177492.56, -0.20, 0.53, 0.87
236, -177134.27, -177205.78, -177233.53, -177162.45, 38896.95, 60940.38, -177586.28, -177478.09, -0.20, 0.53, 0.87
237, -177017.19, -177195.44, -177227.63, -176960.28, 38914.97, 60955.20, -177610.78, -177449.55, -0.18, 0.54, 0.86
238, -177085.13, -177179.80, -177221.39, -176971.81, 38925.25, 60954.55, -177605.97, -177454.88, -0.18, 0.54, 0.86
239, -177268.27, -177194.66, -177202.77, -177136.47, 38837.16, 60848.78, -177558.66, -177484.22, -0.18, 0.54, 0.86
240, -177440.30, -177203.91, -177212.89, -177178.77, 38717.45, 60714.49, -177566.56, -177477.52, -0.18, 0.54, 0.86
241, -177351.05, -177219.95, -177220.19, -176983.72, 38716.44, 60709.37, -177611.27, -177439.97, -0.18, 0.54, 0.86
242, -177226.59, -177188.64, -177201.30, -176983.70, 38718.96, 60705.46, -177582.95, -177434.44, -0.18, 0.55, 0.86
243, -177167.88, -177151.81, -177180.17, -177151.11, 38614.27, 60586.61, -177517.23, -177447.45, -0.18, 0.55, 0.86
244, -177126.97, -177170.00, -177194.20, -177177.47, 38463.35, 60422.60, -177540.28, -177454.11, -0.18, 0.55, 0.86
245, -177006.08, -177180.73, -177201.09, -176979.81, 38444.13, 60399.73, -177584.48, -177426.17, -0.18, 0.55, 0.86
246, -177043.17, -177154.33, -177190.67, -176932.78, 38471.46, 60422.46, -177578.81, -177420.19, -0.18, 0.55, 0.86
247, -177192.08, -177160.70, -177171.50, -177065.84, 38414.69, 60350.56, -177531.47, -177416.16, -0.18, 0.55, 0.85
248, -177400.02, -177156.81, -177166.05, -177176.14, 38284.43, 60202.75, -177520.25, -177414.17, -0.18, 0.55, 0.85
249, -177363.48, -177183.53, -177189.83, -177004.98, 38242.85, 60154.55, -177579.34, -177411.98, -0.18, 0.55, 0.85
250, -177233.81, -177170.89, -177181.17, -176923.86, 38260.78, 60167.86, -177572.36, -177400.67, -0.18, 0.55, 0.85
251, -177149.48, -177124.69, -177147.92, -177058.31, 38195.87, 60090.90, -177491.28, -177402.59, -0.18, 0.55, 0.85
252, -177120.83, -177120.56, -177145.33, -177155.22, 38042.80, 59919.44, -177490.77, -177412.25, -0.18, 0.54, 0.85
253, -177007.95, -177137.48, -177165.08, -177000.17, 37968.80, 59836.60, -177537.89, -177387.70, -0.18, 0.54, 0.85
254, -176971.09, -177122.19, -177159.09, -176891.44, 37997.03, 59860.09, -177554.98, -177383.75, -0.18, 0.54, 0.85
255, -177080.14, -177117.81, -177147.78, -176976.09, 37973.00, 59827.14, -177518.69, -177388.67, -0.18, 0.54, 0.85
0, -177288.78, -177124.77, -177130.53, -177125.30, 37860.34, 59699.68, -177472.84, -177397.78, -0.18, 0.54, 0.85
1, -177359.98, -177138.59, -177144.63, -177033.45, 37768.95, 59600.10, -177512.77, -177378.91, -0.20, 0.55, 0.85
2, -177244.83, -177142.75, -177147.92, -176883.03, 37774.20, 59603.65, -177544.38, -177365.58, -0.20, 0.55, 0.85
3, -177139.83, -177111.03, -177126.58, -176959.33, 37741.07, 59563.17, -177486.34, -177357.05, -0.20, 0.55, 0.85
4, -177092.73, -177091.02, -177106.52, -177123.83, 37611.08, 59421.06, -177446.16, -177357.22, -0.20, 0.55, 0.85
5, -177004.06, -177110.52, -177127.05, -177059.58, 37496.48, 59297.34, -177490.19, -177358.31, -0.20, 0.55, 0.85
6, -176941.56, -177115.34, -177137.34, -176875.67, 37502.11, 59304.54, -177530.98, -177356.53, -0.20, 0.55, 0.85
7, -177030.30, -177100.44, -177124.45, -176899.55, 37501.31, 59298.75, -177503.06, -177349.11, -0.20, 0.55, 0.86
8, -177209.23, -177096.55, -177100.58, -177053.06, 37420.69, 59202.93, -177451.81, -177373.06, -0.20, 0.55, 0.86
9, -177340.80, -177087.64, -177100.95, -177079.66, 37299.96, 59069.49, -177449.98, -177373.45, -0.20, 0.55, 0.86
10, -177260.03, -177111.13, -177114.02, -176895.14, 37269.79, 59038.84, -177500.27, -177331.52, -0.20, 0.55, 0.86
11, -177144.70, -177089.88, -177101.84, -176891.14, 37256.38, 59021.72, -177478.59, -177333.23, -0.20, 0.55, 0.86
12, -177075.14, -177055.94, -177076.48, -177046.33, 37157.34, 58912.31, -177416.67, -177356.22, -0.19, 0.54, 0.85
13, -177024.61, -177057.80, -177077.91, -177054.55, 37014.84, 58758.38, -177425.03, -177358.84, -0.19, 0.54, 0.85
14, -176906.39, -177078.72, -177093.92, -176874.63, 36973.02, 58715.75, -177478.36, -177319.67, -0.19, 0.54, 0.85
15, -176939.06, -177067.98, -177094.70, -176836.42, 36984.78, 58725.03, -177485.50, -177311.05, -0.19, 0.54, 0.85
16, -177070.92, -177067.63, -177073.63, -176958.06, 36934.98, 58662.57, -177424.39, -177318.89, -0.19, 0.54, 0.85
17, -177277.41, -177054.89, -177063.78, -177049.38, 36819.11, 58531.48, -177403.91, -177338.48, -0.20, 0.55, 0.85
18, -177280.19, -177071.23, -177083.98, -176895.45, 36757.62, 58465.37, -177462.58, -177308.67, -0.20, 0.55, 0.85
19, -177164.38, -177069.19, -177081.38, -176834.25, 36754.25, 58461.19, -177470.03, -177296.22, -0.20, 0.55, 0.85
20, -177074.47, -177037.50, -177050.94, -176966.69, 36689.58, 58389.82, -177403.69, -177302.84, -0.20, 0.55, 0.85
21, -177024.78, -177020.72, -177042.39, -177071.56, 36551.20, 58240.39, -177387.14, -177304.22, -0.20, 0.55, 0.85
22, -176914.31, -177037.48, -177062.42, -176927.94, 36468.32, 58153.25, -177430.22, -177290.70, -0.20, 0.55, 0.85
23, -176886.63, -177044.50, -177071.31, -176791.42, 36474.34, 58157.88, -177460.34, -177276.63, -0.20, 0.55, 0.85
24, -176991.81, -177041.66, -177052.72, -176863.63, 36451.36, 58126.11, -177416.31, -177278.94, -0.20, 0.55, 0.85
25, -177183.33, -177027.47, -177032.11, -177010.19, 36359.47, 58017.10, -177366.36, -177303.00, -0.20, 0.55, 0.85
26, -177266.83, -177028.97, -177040.70, -176941.00, 36270.53, 57916.25, -177405.44, -177285.00, -0.20, 0.55, 0.85
27, -177166.78, -177040.06, -177050.98, -176797.17, 36260.12, 57902.32, -177440.14, -177267.59, -0.20, 0.57, 0.85
28, -177062.84, -177010.86, -177025.25, -176876.28, 36226.01, 57860.68, -177387.95, -177269.80, -0.20, 0.57, 0.85
29, -177001.14, -176980.48, -177007.91, -177003.84, 36113.73, 57733.21, -177349.33, -177274.27, -0.20, 0.57, 0.85
30, -176911.86, -176990.36, -177022.61, -176913.53, 36005.13, 57611.46, -177380.00, -177260.59, -0.20, 0.57, 0.85
31, -176828.52, -177008.69, -177044.05, -176768.27, 36002.91, 57603.02, -177435.56, -177251.11, -0.20, 0.57, 0.85
32, -176907.28, -177001.47, -177028.47, -176805.28, 36006.65, 57596.15, -177404.77, -177248.34, -0.20, 0.58, 0.84
33, -177063.16, -177005.33, -177005.06, -176945.64, 35944.02, 57514.34, -177343.67, -177253.33, -0.20, 0.58, 0.84
34, -177222.08, -176993.31, -177002.52, -176962.69, 35850.72, 57401.71, -177348.55, -177264.55, -0.20, 0.58, 0.84
35, -177160.09, -177009.09, -177020.48, -176791.78, 35823.21, 57365.21, -177406.22, -177241.66, -0.20, 0.58, 0.84
36, -177049.55, -176989.17, -177003.61, -176802.20, 35811.85, 57342.39, -177372.34, -177233.03, -0.20, 0.58, 0.84
37, -176958.94, -176961.22, -176987.28, -176946.42, 35738.18, 57249.77, -177326.13, -177245.38, -0.20, 0.58, 0.84
38, -176854.13, -176979.11, -176991.91, -176940.53, 35637.42, 57126.03, -177336.30, -177263.72, -0.18, 0.58, 0.83
39, -176875.72, -176997.88, -177013.92, -176762.50, 35622.62, 57096.81, -177396.16, -177224.66, -0.18, 0.58, 0.83
40, -176966.69, -176984.33, -177003.69, -176741.58, 35648.75, 57107.41, -177389.41, -177220.20, -0.18, 0.58, 0.83
41, -177126.61, -176969.38, -176974.61, -176853.77, 35617.13, 57051.06, -177321.23, -177220.77, -0.18, 0.58, 0.83
42, -177188.73, -176952.25, -176966.22, -176950.47, 35523.94, 56929.33, -177300.42, -177211.06, -0.18, 0.58, 0.83
43, -177110.13, -176973.11, -176986.09, -176800.75, 35481.61, 56869.16, -177364.97, -177206.14, -0.17, 0.58, 0.82
44, -176992.33, -176968.13, -176986.27, -176751.27, 35492.40, 56862.66, -177362.34, -177202.98, -0.17, 0.58, 0.82
45, -176849.81, -176942.13, -176960.77, -176865.92, 35459.66, 56803.98, -177304.22, -177201.86, -0.17, 0.58, 0.82
46, -176836.36, -176943.22, -176953.30, -176908.17, 35384.75, 56696.16, -177292.58, -177224.81, -0.17, 0.58, 0.82
47, -176966.94, -176962.75, -176977.78, -176745.09, 35358.65, 56643.95, -177351.50, -177200.67, -0.17, 0.58, 0.82
48, -177102.31, -176959.25, -176977.23, -176694.22, 35398.12, 56659.46, -177364.64, -177190.13, -0.15, 0.59, 0.81
49, -177118.25, -176939.22, -176945.55, -176784.44, 35387.19, 56618.87, -177301.77, -177185.05, -0.15, 0.59, 0.81
50, -177046.28, -176912.20, -176930.70, -176913.53, 35305.90, 56502.17, -177264.27, -177172.64, -0.15, 0.59, 0.81
51, -176969.80, -176930.06, -176944.14, -176805.75, 35244.52, 56410.08, -177308.31, -177175.34, -0.15, 0.59, 0.81
52, -176810.70, -176939.44, -176961.45, -176681.53, 35262.87, 56401.41, -177343.86, -177168.17, -0.15, 0.59, 0.81
53, -176779.61, -176939.69, -176942.69, -176730.45, 35277.76, 56383.21, -177309.44, -177164.34, -0.15, 0.59, 0.82
54, -176906.94, -176920.58, -176923.69, -176858.97, 35240.50, 56307.26, -177264.22, -177170.84, -0.15, 0.59, 0.82
55, -177088.31, -176919.45, -176927.16, -176851.25, 35197.02, 56226.39, -177287.70, -177174.61, -0.15, 0.59, 0.82
56, -177068.55, -176926.80, -176940.22, -176686.64, 35210.88, 56212.02, -177326.27, -177155.70, -0.15, 0.59, 0.82
57, -176949.13, -176899.91, -176919.33, -176718.42, 35220.52, 56188.75, -177280.94, -177151.20, -0.15, 0.59, 0.82
58, -176812.81, -176887.98, -176905.56, -176847.52, 35172.19, 56099.55, -177242.53, -177162.30, -0.14, 0.59, 0.81
59, -176799.09, -176905.09, -176913.20, -176792.84, 35118.68, 56004.68, -177264.55, -177168.06, -0.14, 0.59, 0.81
60, -176898.70, -176917.06, -176930.77, -176653.00, 35143.00, 55998.61, -177320.52, -177140.97, -0.14, 0.59, 0.81
61, -177027.52, -176904.48, -176911.80, -176674.31, 35180.75, 56002.43, -177287.38, -177135.20, -0.14, 0.59, 0.81
62, -177089.38, -176873.92, -176883.41, -176800.33, 35145.30, 55926.84, -177209.88, -177125.28, -0.14, 0.59, 0.81
63, -177026.06, -176868.86, -176883.92, -176836.73, 35067.50, 55807.36, -177219.88, -177115.38, -0.14, 0.59, 0.80
64, -176922.30, -176888.53, -176906.05, -176662.80, 35060.36, 55766.01, -177295.23, -177124.81, -0.14, 0.59, 0.80
65, -176752.30, -176878.64, -176895.67, -176643.75, 35084.17, 55760.29, -177270.63, -177114.59, -0.14, 0.59, 0.80
66, -176722.42, -176878.27, -176876.41, -176739.97, 35073.08, 55713.38, -177224.56, -177115.02, -0.14, 0.59, 0.80
67, -176859.52, -176859.98, -176867.50, -176825.61, 35023.53, 55623.90, -177208.38, -177123.98, -0.14, 0.59, 0.80
68, -177032.88, -176877.08, -176887.55, -176677.92, 35010.54, 55580.88, -177271.80, -177108.16, -0.14, 0.59, 0.80
69, -177007.55, -176866.42, -176877.86, -176635.45, 35032.87, 55575.55, -177253.17, -177096.75, -0.14, 0.60, 0.81
70, -176898.97, -176840.22, -176855.64, -176741.08, 35010.12, 55519.45, -177204.38, -177097.27, -0.14, 0.60, 0.81
71, -176792.22, -176824.67, -176847.88, -176833.11, 34935.51, 55407.04, -177185.20, -177135.31, -0.14, 0.60, 0.81
72, -176691.05, -176854.39, -176866.94, -176687.00, 34896.61, 55337.96, -177234.44, -177101.31, -0.14, 0.60, 0.81
73, -176743.44, -176862.28, -176875.78, -176598.20, 34931.55, 55346.85, -177262.56, -177078.69, -0.14, 0.60, 0.81
74, -176855.48, -176850.75, -176852.16, -176664.31, 34935.95, 55321.48, -177209.88, -177076.14, -0.16, 0.61, 0.81
75, -177007.73, -176823.14, -176832.95, -176793.75, 34880.68, 55230.78, -177171.45, -177097.31, -0.16, 0.61, 0.81
76, -176985.83, -176824.08, -176837.88, -176738.05, 34818.38, 55137.32, -177194.72, -177091.92, -0.16, 0.61, 0.81
77, -176878.95, -176832.75, -176853.61, -176602.95, 34820.80, 55115.64, -177240.25, -177074.41, -0.16, 0.61, 0.81
78, -176721.47, -176818.19, -176835.22, -176663.98, 34813.54, 55080.35, -177197.36, -177070.92, -0.16, 0.61, 0.81
79, -176683.98, -176815.02, -176819.77, -176780.05, 34758.17, 54991.53, -177150.27, -177059.52, -0.16, 0.61, 0.82
80, -176813.00, -176824.55, -176834.30, -176684.56, 34709.53, 54913.23, -177200.53, -177057.91, -0.16, 0.61, 0.82
81, -176959.09, -176827.14, -176839.64, -176578.00, 34731.23, 54912.89, -177232.25, -177051.16, -0.16, 0.61, 0.82
82, -176989.98, -176808.27, -176813.73, -176638.55, 34735.04, 54892.11, -177177.56, -177047.72, -0.16, 0.61, 0.82
83, -176903.30, -176785.55, -176798.77, -176762.75, 34672.76, 54799.41, -177133.19, -177060.61, -0.16, 0.61, 0.82
84, -176832.06, -176777.39, -176796.44, -176714.03, 34581.01, 54679.88, -177139.22, -177070.42, -0.17, 0.61, 0.83
85, -176691.36, -176803.44, -176826.30, -176560.72, 34562.10, 54645.12, -177205.98, -177037.50, -0.17, 0.61, 0.83
86, -176642.59, -176809.92, -176811.45, -176572.89, 34578.71, 54642.84, -177188.55, -177030.48, -0.17, 0.61, 0.83
87, -176747.22, -176791.39, -176789.81, -176682.47, 34550.79, 54585.39, -177136.14, -177029.92, -0.17, 0.61, 0.83
88, -176924.36, -176783.42, -176786.94, -176733.56, 34487.76, 54492.34, -177142.22, -177029.41, -0.17, 0.61, 0.83
89, -176991.75, -176786.42, -176795.13, -176569.64, 34461.38, 54447.80, -177176.08, -177024.41, -0.15, 0.61, 0.83
90, -176887.66, -176779.42, -176791.97, -176546.50, 34462.66, 54431.66, -177168.23, -177016.28, -0.15, 0.61, 0.83
91, -176786.44, -176748.83, -176768.45, -176669.50, 34417.55, 54362.19, -177108.78, -177017.98, -0.15, 0.61, 0.83
92, -176680.19, -176743.31, -176760.77, -176736.78, 34321.68, 54239.25, -177098.50, -177014.56, -0.15, 0.61, 0.83
93, -176612.53, -176790.20, -176791.36, -176570.27, 34289.52, 54188.96, -177176.23, -177006.83, -0.15, 0.61, 0.83
94, -176689.55, -176782.11, -176791.91, -176515.66, 34315.40, 54199.00, -177179.61, -177001.58, -0.15, 0.60, 0.83
95, -176816.52, -176761.48, -176764.98, -176602.27, 34301.46, 54162.05, -177118.92, -176999.95, -0.15, 0.60, 0.83
96, -176960.47, -176740.31, -176749.67, -176720.19, 34229.77, 54063.62, -177081.33, -177017.50, -0.15, 0.60, 0.83
97, -176926.41, -176745.55, -176755.72, -176617.33, 34164.37, 53980.58, -177126.86, -176999.02, -0.15, 0.60, 0.83
98, -176823.06, -176746.61, -176764.56, -176517.47, 34159.90, 53963.55, -177146.36, -176981.42, -0.15, 0.60, 0.83
99, -176700.28, -176723.70, -176743.28, -176606.95, 34133.30, 53917.17, -177095.33, -176986.34, -0.14, 0.59, 0.83
100, -176592.28, -176725.20, -176731.33, -176717.38, 34051.09, 53810.10, -177059.83, -176977.78, -0.14, 0.59, 0.83
101, -176677.84, -176739.31, -176747.73, -176589.42, 33996.06, 53735.76, -177124.41, -176977.03, -0.14, 0.59, 0.83
102, -176804.34, -176744.48, -176757.81, -176487.88, 34014.50, 53738.93, -177150.95, -176963.06, -0.14, 0.59, 0.83
103, -176918.23, -176727.66, -176731.55, -176556.80, 34009.21, 53713.95, -177094.63, -176967.22, -0.14, 0.59, 0.83
104, -176866.33, -176693.39, -176711.25, -176695.39, 33930.44, 53612.18, -177042.48, -176962.69, -0.14, 0.59, 0.83
105, -176798.20, -176701.00, -176715.97, -176645.14, 33836.16, 53499.39, -177068.55, -176948.97, -0.13, 0.60, 0.83
106, -176681.30, -176714.16, -176736.88, -176494.47, 33819.26, 53471.81, -177122.86, -176947.80, -0.13, 0.60, 0.83
107, -176546.14, -176718.00, -176720.08, -176532.55, 33816.42, 53453.82, -177087.52, -176944.03, -0.13, 0.60, 0.83
108, -176621.72, -176703.30, -176704.86, -176656.81, 33767.32, 53382.98, -177046.03, -176958.80, -0.13, 0.60, 0.83
109, -176808.13, -176695.39, -176703.20, -176641.92, 33691.63, 53285.84, -177051.72, -176963.31, -0.13, 0.60, 0.83
110, -176894.72, -176710.20, -176722.83, -176481.19, 33670.82, 53252.54, -177111.84, -176935.42, -0.15, 0.60, 0.84
111, -176793.48, -176695.66, -176707.75, -176503.42, 33664.70, 53233.88, -177078.73, -176934.25, -0.15, 0.60, 0.84
112, -176699.97, -176660.56, -176684.03, -176640.28, 33597.91, 53147.89, -177019.42, -176932.25, -0.15, 0.60, 0.84
113, -176608.33, -176654.28, -176681.75, -176643.02, 33488.21, 53017.62, -177025.61, -176926.48, -0.15, 0.60, 0.84
114, -176509.33, -176696.30, -176712.50, -176476.06, 33455.62, 52974.04, -177095.53, -176923.44, -0.15, 0.60, 0.84
115, -176572.36, -176692.17, -176701.16, -176460.59, 33469.68, 52978.17, -177084.48, -176923.27, -0.16, 0.61, 0.85
116, -176700.13, -176676.47, -176676.36, -176572.27, 33434.07, 52925.09, -177028.30, -176915.14, -0.16, 0.61, 0.85
117, -176864.36, -176657.75, -176666.73, -176657.31, 33344.40, 52814.93, -177003.80, -176940.36, -0.16, 0.61, 0.85
118, -176845.28, -176662.69, -176677.55, -176514.56, 33276.96, 52736.91, -177053.92, -176913.47, -0.16, 0.61, 0.85
119, -176739.50, -176668.20, -176685.75, -176434.03, 33263.17, 52716.99, -177067.73, -176906.20, -0.16, 0.61, 0.85
120, -176624.84, -176637.72, -176661.05, -176548.80, 33215.38, 52657.78, -177002.47, -176911.48, -0.17, 0.61, 0.84
121, -176514.27, -176638.19, -176647.48, -176628.03, 33110.35, 52537.86, -176976.30, -176904.80, -0.17, 0.61, 0.84
122, -176580.31, -176664.22, -176668.34, -176476.83, 33051.39, 52470.96, -177051.52, -176888.70, -0.17, 0.61, 0.84
123, -176696.80, -176665.28, -176677.50, -176406.80, 33063.06, 52477.02, -177073.13, -176886.72, -0.17, 0.61, 0.84
124, -176837.30, -176643.17, -176649.23, -176500.48, 33036.35, 52438.11, -177000.34, -176886.58, -0.17, 0.61, 0.84
125, -176824.22, -176613.42, -176627.45, -176629.06, 32931.96, 52317.68, -176949.45, -176874.69, -0.18, 0.60, 0.84
126, -176757.67, -176627.14, -176638.92, -176534.31, 32834.71, 52209.67, -176999.92, -176866.58, -0.18, 0.60, 0.84
127, -176652.14, -176635.14, -176656.97, -176403.09, 32815.29, 52185.60, -177045.33, -176868.59, -0.18, 0.60, 0.84
128, -176495.38, -176630.94, -176637.98, -176468.36, 32792.49, 52152.43, -177001.47, -176868.05, -0.18, 0.60, 0.84
129, -176518.30, -176619.80, -176624.02, -176590.28, 32722.26, 52065.97, -176964.36, -176892.28, -0.18, 0.60, 0.84
130, -176697.75, -176618.50, -176624.63, -176520.91, 32638.82, 51969.39, -176988.23, -176879.72, -0.16, 0.60, 0.82
131, -176811.86, -176628.19, -176640.23, -176390.17, 32621.63, 51945.70, -177030.23, -176855.69, -0.16, 0.60, 0.82
132, -176727.80, -176610.02, -176621.16, -176456.98, 32599.26, 51915.05, -176987.44, -176856.77, -0.16, 0.60, 0.82
133, -176641.61, -176584.75, -176602.36, -176585.17, 32511.91, 51814.54, -176943.91, -176886.36, -0.16, 0.60, 0.82
134, -176563.33, -176575.00, -176600.81, -176532.95, 32395.37, 51683.40, -176949.28, -176891.86, -0.16, 0.60, 0.82
135, -176444.70, -176608.77, -176633.89, -176375.91, 32360.50, 51642.12, -177015.95, -176848.47, -0.16, 0.60, 0.82
136, -176486.48, -176610.89, -176621.41, -176383.11, 32366.53, 51639.88, -176999.97, -176834.84, -0.16, 0.60, 0.82
137, -176608.19, -176599.39, -176597.23, -176503.70, 32321.92, 51579.60, -176946.63, -176842.39, -0.16, 0.60, 0.82
138, -176790.47, -176579.64, -176587.09, -176567.73, 32231.79, 51471.51, -176930.80, -176868.13, -0.16, 0.60, 0.82
139, -176801.80, -176587.47, -176602.22, -176414.00, 32175.92, 51406.13, -176984.39, -176833.16, -0.16, 0.60, 0.82
140, -176695.39, -176589.14, -176602.77, -176375.36, 32163.31, 51384.51, -176977.84, -176828.52, -0.16, 0.60, 0.82
141, -176600.59, -176555.58, -176570.64, -176507.14, 32099.81, 51306.89, -176909.30, -176831.95, -0.15, 0.60, 0.82
142, -176518.22, -176540.13, -176565.03, -176548.22, 31980.63, 51169.58, -176899.36, -176828.16, -0.15, 0.60, 0.82
143, -176411.56, -176579.36, -176595.34, -176388.47, 31924.66, 51102.48, -176966.06, -176813.95, -0.15, 0.60, 0.82
144, -176457.05, -176583.31, -176597.55, -176335.78, 31940.04, 51109.16, -176986.30, -176808.63, -0.15, 0.60, 0.82
145, -176569.97, -176571.63, -176570.42, -176431.00, 31917.60, 51069.22, -176927.55, -176798.92, -0.15, 0.60, 0.82
146, -176743.00, -176549.11, -176554.75, -176536.64, 31832.15, 50964.55, -176888.59, -176825.89, -0.16, 0.60, 0.81
147, -176752.50, -176553.00, -176566.38, -176420.95, 31753.22, 50876.32, -176930.50, -176816.64, -0.16, 0.60, 0.81
148, -176649.73, -176560.61, -176574.50, -176341.56, 31741.22, 50858.02, -176957.66, -176797.28, -0.16, 0.60, 0.81
149, -176538.78, -176532.06, -176552.56, -176441.56, 31705.37, 50809.89, -176903.34, -176801.78, -0.16, 0.60, 0.81
150, -176415.20, -176528.23, -176539.95, -176540.08, 31607.11, 50692.86, -176864.05, -176798.14, -0.16, 0.60, 0.81
151, -176437.83, -176550.98, -176560.80, -176407.94, 31537.97, 50606.09, -176927.58, -176786.95, -0.16, 0.59, 0.81
152, -176536.23, -176559.84, -176572.22, -176295.16, 31555.39, 50609.91, -176963.47, -176782.48, -0.16, 0.59, 0.81
153, -176675.56, -176543.66, -176544.58, -176357.09, 31554.85, 50591.07, -176910.30, -176774.91, -0.16, 0.59, 0.81
154, -176737.52, -176511.30, -176522.47, -176493.89, 31483.41, 50494.73, -176857.55, -176796.56, -0.16, 0.59, 0.81
155, -176676.39, -176503.53, -176521.38, -176456.48, 31388.20, 50376.29, -176862.78, -176797.17, -0.16, 0.59, 0.81
156, -176586.80, -176523.36, -176541.63, -176303.31, 31364.35, 50336.91, -176923.03, -176762.70, -0.15, 0.61, 0.81
157, -176438.50, -176514.88, -176532.11, -176335.95, 31359.27, 50313.15, -176899.72, -176762.17, -0.15, 0.61, 0.81
158, -176357.88, -176518.02, -176519.94, -176460.56, 31310.70, 50239.54, -176860.30, -176770.38, -0.15, 0.61, 0.81
159, -176481.48, -176504.33, -176513.34, -176429.06, 31242.08, 50144.84, -176866.94, -176782.72, -0.15, 0.61, 0.81
160, -176645.03, -176524.28, -176534.39, -176266.13, 31237.88, 50122.00, -176922.88, -176752.38, -0.15, 0.61, 0.81
161, -176679.64, -176516.39, -176526.56, -176284.98, 31248.36, 50113.28, -176900.78, -176748.09, -0.15, 0.61, 0.81
162, -176584.86, -176487.80, -176502.47, -176418.33, 31197.92, 50037.57, -176836.25, -176744.63, -0.15, 0.61, 0.81
163, -176508.05, -176470.75, -176495.52, -176474.64, 31101.27, 49913.77, -176831.11, -176735.58, -0.15, 0.61, 0.81
164, -176374.75, -176498.95, -176516.66, -176306.67, 31067.18, 49858.83, -176902.81, -176736.69, -0.15, 0.61, 0.81
165, -176347.17, -176510.06, -176521.58, -176255.08, 31093.33, 49862.25, -176899.70, -176734.39, -0.15, 0.61, 0.81
166, -176446.92, -176497.55, -176495.63, -176344.69, 31083.18, 49821.77, -176848.89, -176731.95, -0.15, 0.61, 0.81
167, -176615.19, -176472.56, -176483.27, -176457.88, 31024.80, 49730.53, -176817.63, -176748.97, -0.16, 0.61, 0.80
168, -176680.83, -176482.75, -176495.27, -176345.47, 30985.60, 49663.83, -176865.95, -176725.42, -0.16, 0.61, 0.80
169, -176576.11, -176481.59, -176494.55, -176252.80, 30996.86, 49650.51, -176874.28, -176712.73, -0.16, 0.61, 0.80
170, -176455.75, -176454.20, -176475.06, -176348.75, 30976.52, 49601.83, -176819.89, -176714.20, -0.16, 0.61, 0.80
171, -176332.03, -176450.97, -176464.20, -176436.66, 30901.42, 49492.44, -176785.73, -176703.72, -0.16, 0.61, 0.80
172, -176382.13, -176481.50, -176491.48, -176288.34, 30869.72, 49428.89, -176859.98, -176700.92, -0.16, 0.60, 0.81
173, -176476.34, -176484.72, -176490.73, -176216.08, 30914.38, 49443.18, -176884.95, -176703.03, -0.16, 0.60, 0.81
174, -176615.67, -176465.66, -176465.78, -176284.33, 30929.25, 49422.48, -176826.50, -176698.33, -0.16, 0.60, 0.81
175, -176639.19, -176436.80, -176445.80, -176410.42, 30875.13, 49329.89, -176780.56, -176715.28, -0.16, 0.60, 0.81
176, -176563.44, -176436.66, -176450.41, -176339.66, 30815.10, 49234.68, -176799.31, -176703.92, -0.16, 0.60, 0.81
177, -176447.50, -176449.11, -176469.16, -176195.86, 30826.29, 49215.95, -176851.78, -176680.97, -0.16, 0.62, 0.81
178, -176285.91, -176444.94, -176451.34, -176235.77, 30843.71, 49199.12, -176816.84, -176679.73, -0.16, 0.62, 0.81
179, -176318.52, -176438.23, -176436.95, -176352.59, 30818.76, 49134.83, -176775.30, -176679.94, -0.16, 0.62, 0.81
180, -176466.23, -176433.98, -176441.22, -176345.95, 30782.93, 49059.46, -176804.58, -176684.09, -0.16, 0.62, 0.81
181, -176602.31, -176444.94, -176455.42, -176190.56, 30808.93, 49051.55, -176846.53, -176672.55, -0.16, 0.62, 0.81
182, -176530.98, -176425.31, -176436.42, -176220.98, 30833.09, 49039.64, -176803.67, -176667.67, -0.16, 0.61, 0.82
183, -176422.73, -176394.22, -176418.36, -176346.77, 30800.23, 48966.03, -176760.55, -176678.63, -0.16, 0.61, 0.82
184, -176291.75, -176407.09, -176417.27, -176348.28, 30742.37, 48867.19, -176762.53, -176690.67, -0.16, 0.61, 0.82
185, -176274.86, -176439.03, -176442.20, -176177.97, 30761.92, 48852.15, -176830.25, -176661.59, -0.16, 0.61, 0.82
186, -176355.13, -176428.45, -176435.23, -176167.08, 30816.08, 48869.99, -176818.63, -176654.09, -0.16, 0.61, 0.82
187, -176481.36, -176409.11, -176410.75, -176255.80, 30821.29, 48833.26, -176761.02, -176655.48, -0.15, 0.61, 0.81
188, -176608.88, -176388.20, -176397.81, -176353.97, 30778.48, 48746.54, -176739.02, -176674.48, -0.15, 0.61, 0.81
189, -176549.09, -176404.13, -176416.91, -176214.36, 30767.55, 48697.50, -176790.58, -176637.77, -0.15, 0.61, 0.81
190, -176427.28, -176396.63, -176415.86, -176142.67, 30806.42, 48697.27, -176792.77, -176638.08, -0.15, 0.61, 0.81
191, -176269.92, -176377.98, -176389.80, -176232.45, 30807.70, 48652.41, -176733.00, -176634.70, -0.15, 0.61, 0.81
192, -176227.31, -176390.55, -176391.33, -176338.97, 30784.10, 48578.45, -176734.55, -176641.63, -0.15, 0.61, 0.81
193, -176340.44, -176387.09, -176400.75, -176218.00, 30795.25, 48546.78, -176778.89, -176628.00, -0.15, 0.61, 0.81
194, -176446.25, -176389.39, -176405.77, -176124.56, 30861.75, 48571.61, -176791.58, -176617.88, -0.15, 0.61, 0.81
195, -176569.95, -176376.14, -176378.89, -176187.78, 30888.50, 48551.77, -176730.91, -176614.67, -0.15, 0.61, 0.81
196, -176525.94, -176349.94, -176362.09, -176314.72, 30851.51, 48467.54, -176693.58, -176632.27, -0.15, 0.61, 0.81
197, -176438.66, -176361.72, -176377.31, -176238.14, 30828.40, 48398.03, -176741.81, -176618.20, -0.15, 0.61, 0.81
198, -176293.66, -176359.80, -176390.16, -176108.97, 30873.30, 48401.89, -176775.89, -176609.27, -0.15, 0.60, 0.81
199, -176171.45, -176366.61, -176372.22, -176149.48, 30910.70, 48392.71, -176731.22, -176597.70, -0.15, 0.60, 0.81
200, -176246.53, -176364.13, -176363.61, -176249.52, 30911.57, 48340.81, -176707.63, -176596.83, -0.15, 0.60, 0.81
201, -176371.03, -176357.84, -176366.30, -176280.89, 30918.97, 48298.12, -176735.38, -176597.14, -0.15, 0.60, 0.81
202, -176517.78, -176357.92, -176368.16, -176116.81, 30974.44, 48308.31, -176753.81, -176583.47, -0.15, 0.60, 0.81
203, -176478.45, -176340.86, -176350.16, -176128.14, 31014.16, 48301.07, -176710.20, -176576.67, -0.14, 0.60, 0.80
204, -176370.05, -176321.11, -176334.41, -176248.58, 30999.54, 48236.23, -176669.20, -176593.39, -0.14, 0.60, 0.80
205, -176248.75, -176309.70, -176325.38, -176273.58, 30965.19, 48153.28, -176676.59, -176594.78, -0.14, 0.60, 0.80
206, -176156.97, -176339.95, -176344.19, -176089.86, 31006.45, 48148.70, -176741.47, -176565.94, -0.14, 0.60, 0.80
207, -176218.28, -176339.80, -176347.64, -176063.83, 31073.77, 48169.95, -176719.72, -176562.08, -0.14, 0.60, 0.80
208, -176317.14, -176326.89, -176327.25, -176142.67, 31093.60, 48141.16, -176671.47, -176563.36, -0.14, 0.61, 0.80
209, -176474.73, -176312.56, -176319.42, -176249.59, 31086.29, 48084.48, -176669.48, -176558.30, -0.14, 0.61, 0.80
210, -176479.67, -176311.02, -176324.08, -176149.67, 31110.92, 48066.93, -176705.70, -176548.31, -0.14, 0.61, 0.80
211, -176361.00, -176302.06, -176319.39, -176071.91, 31154.73, 48066.78, -176687.11, -176542.36, -0.14, 0.61, 0.80
212, -176206.33, -176291.63, -176305.91, -176162.83, 31158.98, 48022.36, -176649.16, -176543.95, -0.14, 0.61, 0.80
213, -176153.05, -176299.69, -176303.61, -176254.39, 31142.93, 47958.17, -176648.11, -176550.59, -0.15, 0.62, 0.81
214, -176255.55, -176310.13, -176316.72, -176105.86, 31173.96, 47947.46, -176700.28, -176536.95, -0.15, 0.62, 0.81
215, -176356.80, -176306.13, -176313.73, -176024.58, 31244.29, 47978.13, -176696.44, -176526.11, -0.15, 0.62, 0.81
216, -176477.23, -176280.30, -176283.69, -176095.23, 31267.83, 47958.19, -176632.86, -176524.55, -0.15, 0.62, 0.81
217, -176428.58, -176261.77, -176276.38, -176221.11, 31238.30, 47881.86, -176611.28, -176541.94, -0.15, 0.62, 0.81
218, -176333.55, -176272.89, -176290.97, -176146.83, 31230.33, 47831.95, -176661.97, -176521.98, -0.15, 0.61, 0.82
219, -176169.66, -176277.31, -176299.98, -176042.13, 31277.55, 47840.78, -176678.44, -176514.53, -0.15, 0.61, 0.82
220, -176106.39, -176278.05, -176277.08, -176099.73, 31308.82, 47831.14, -176633.36, -176509.28, -0.15, 0.61, 0.82
221, -176215.05, -176257.78, -176262.94, -176208.31, 31294.77, 47773.81, -176598.22, -176497.03, -0.15, 0.61, 0.82
222, -176384.09, -176265.11, -176271.38, -176115.06, 31291.64, 47729.96, -176639.75, -176497.22, -0.15, 0.61, 0.82
223, -176415.83, -176269.83, -176280.78, -175993.19, 31336.16, 47741.27, -176665.34, -176493.53, -0.15, 0.62, 0.82
224, -176296.25, -176246.09, -176259.09, -176049.52, 31360.75, 47729.89, -176617.78, -176501.30, -0.15, 0.62, 0.82
225, -176150.25, -176229.47, -176242.73, -176177.81, 31331.06, 47660.36, -176575.31, -176482.70, -0.15, 0.62, 0.82
226, -176126.67, -176252.31, -176252.19, -176125.50, 31311.53, 47605.55, -176622.30, -176481.52, -0.15, 0.62, 0.82
227, -176217.66, -176262.50, -176266.39, -175979.80, 31360.77, 47623.03, -176656.36, -176474.64, -0.15, 0.62, 0.82
228, -176338.05, -176246.61, -176248.03, -176006.17, 31403.89, 47632.26, -176619.61, -176471.11, -0.15, 0.62, 0.82
229, -176430.56, -176216.31, -176224.67, -176122.13, 31385.76, 47578.88, -176569.81, -176480.41, -0.16, 0.62, 0.83
230, -176365.72, -176205.48, -176221.19, -176155.25, 31336.72, 47495.46, -176567.27, -176477.80, -0.16, 0.62, 0.83
231, -176261.14, -176222.59, -176243.28, -175993.81, 31344.74, 47478.61, -176627.53, -176467.06, -0.16, 0.62, 0.83
232, -176089.72, -176223.72, -176237.00, -175995.03, 31375.25, 47483.24, -176607.08, -176461.31, -0.16, 0.62, 0.83
233, -176068.42, -176220.05, -176219.19, -176094.48, 31368.88, 47446.47, -176566.23, -176458.66, -0.16, 0.62, 0.83
234, -176190.64, -176209.38, -176215.31, -176154.97, 31338.17, 47385.83, -176566.17, -176457.56, -0.15, 0.61, 0.83
235, -176354.83, -176218.11, -176226.94, -176000.33, 31352.25, 47376.44, -176615.25, -176446.00, -0.15, 0.61, 0.83
236, -176371.00, -176204.41, -176214.63, -175990.28, 31379.66, 47381.81, -176583.83, -176437.98, -0.15, 0.61, 0.83
237, -176267.27, -176180.52, -176192.52, -176103.08, 31357.17, 47334.71, -176541.05, -176436.94, -0.15, 0.61, 0.83
238, -176166.55, -176159.52, -176185.58, -176162.11, 31293.56, 47244.86, -176523.50, -176455.66, -0.15, 0.61, 0.83
239, -176040.13, -176196.09, -176204.55, -176001.27, 31275.86, 47205.07, -176578.78, -176432.59, -0.15, 0.61, 0.82
240, -176063.70, -176200.34, -176210.06, -175946.20, 31318.77, 47227.54, -176598.75, -176428.55, -0.15, 0.61, 0.82
241, -176160.19, -176185.88, -176185.55, -176020.73, 31326.68, 47210.62, -176542.61, -176422.31, -0.15, 0.61, 0.82
242, -176321.75, -176168.08, -176174.45, -176137.55, 31290.00, 47145.84, -176516.03, -176424.70, -0.15, 0.61, 0.82
243, -176377.72, -176168.27, -176181.39, -176054.72, 31258.11, 47093.31, -176553.05, -176415.36, -0.15, 0.61, 0.82
244, -176274.39, -176177.14, -176189.83, -175948.34, 31269.98, 47091.32, -176571.05, -176412.25, -0.15, 0.60, 0.81
245, -176143.91, -176151.41, -176172.67, -176029.48, 31261.71, 47065.24, -176525.44, -176421.83, -0.15, 0.60, 0.81
246, -176018.69, -176150.00, -176157.44, -176132.98, 31205.76, 46987.34, -176490.59, -176422.11, -0.15, 0.60, 0.81
247, -176090.56, -176165.98, -176175.34, -176004.89, 31173.66, 46935.33, -176552.56, -176406.88, -0.15, 0.60, 0.81
248, -176194.13, -176174.25, -176186.14, -175908.11, 31211.10, 46955.94, -176575.95, -176399.16, -0.15, 0.60, 0.81
249, -176331.44, -176154.88, -176157.38, -175976.27, 31222.17, 46947.69, -176516.66, -176392.66, -0.15, 0.61, 0.80
250, -176314.64, -176125.48, -176138.31, -176099.98, 31166.96, 46872.57, -176472.17, -176411.36, -0.15, 0.61, 0.80
251, -176237.02, -176129.23, -176143.47, -176031.69, 31095.70, 46785.17, -176497.89, -176402.28, -0.15, 0.61, 0.80
252, -176117.81, -176138.78, -176160.59, -175909.03, 31089.73, 46768.39, -176541.16, -176382.73, -0.15, 0.61, 0.80
253, -175969.16, -176148.14, -176153.28, -175957.73, 31096.30, 46762.04, -176522.47, -176379.33, -0.15, 0.61, 0.80
254, -176026.00, -176132.17, -176135.67, -176073.94, 31064.99, 46711.93, -176472.84, -176382.34, -0.15, 0.62, 0.81
255, -176193.00, -176120.23, -176130.83, -176054.92, 31008.60, 46637.83, -176484.81, -176368.00, -0.15, 0.62, 0.81
0, -176298.89, -176138.53, -176146.73, -175903.55, 31008.66, 46626.16, -176536.33, -176362.83, -0.15, 0.62, 0.81
1, -176203.02, -176117.59, -176130.59, -175942.06, 31014.54, 46619.68, -176496.00, -176358.63, -0.15, 0.62, 0.81
2, -176100.14, -176081.97, -176102.70, -176069.69, 30959.20, 46549.36, -176436.03, -176342.14, -0.15, 0.62, 0.81
3, -175974.39, -176099.23, -176110.63, -176028.56, 30872.54, 46448.22, -176459.13, -176337.28, -0.15, 0.62, 0.81
4, -175968.44, -176128.19, -176140.81, -175885.58, 30866.13, 46431.48, -176523.81, -176344.31, -0.14, 0.62, 0.81
5, -176051.70, -176120.20, -176128.50, -175902.72, 30891.52, 46447.80, -176504.83, -176344.86, -0.14, 0.62, 0.81
6, -176182.25, -176097.83, -176100.47, -176007.83, 30870.08, 46412.73, -176444.39, -176345.98, -0.14, 0.62, 0.81
7, -176305.45, -176077.58, -176089.94, -176063.17, 30788.63, 46317.13, -176422.02, -176341.11, -0.14, 0.62, 0.81
8, -176238.16, -176091.03, -176105.50, -175916.09, 30741.98, 46263.66, -176476.88, -176329.53, -0.14, 0.62, 0.81
9, -176118.16, -176084.16, -176107.09, -175896.53, 30742.86, 46258.34, -176479.95, -176329.02, -0.14, 0.62, 0.81
10, -175964.28, -176066.89, -176082.77, -176013.08, 30704.39, 46209.19, -176428.55, -176330.97, -0.14, 0.62, 0.81
11, -175931.33, -176072.70, -176076.70, -176008.38, 30625.26, 46116.99, -176420.66, -176346.50, -0.14, 0.62, 0.81
12, -176051.59, -176088.52, -176099.08, -175858.36, 30583.67, 46068.51, -176474.27, -176325.95, -0.14, 0.62, 0.81
13, -176184.00, -176090.30, -176098.02, -175845.69, 30600.74, 46080.55, -176479.95, -176315.78, -0.14, 0.62, 0.81
14, -176228.34, -176060.61, -176071.34, -175951.41, 30574.01, 46046.78, -176423.00, -176312.59, -0.14, 0.62, 0.81
15, -176148.30, -176036.88, -176054.92, -176050.80, 30480.87, 45942.20, -176384.81, -176299.58, -0.14, 0.62, 0.81
16, -176047.73, -176049.19, -176071.69, -175929.91, 30402.48, 45856.14, -176432.14, -176307.67, -0.14, 0.62, 0.81
17, -175896.84, -176072.19, -176085.81, -175834.06, 30397.61, 45848.25, -176469.03, -176304.92, -0.14, 0.62, 0.81
18, -175924.89, -176070.00, -176070.14, -175901.05, 30388.89, 45833.55, -176433.25, -176294.78, -0.14, 0.62, 0.81
19, -176050.95, -176039.22, -176048.39, -176020.31, 30323.96, 45759.50, -176378.09, -176286.44, -0.15, 0.62, 0.80
20, -176231.03, -176036.80, -176048.25, -175955.41, 30241.15, 45671.41, -176406.27, -176286.95, -0.15, 0.62, 0.80
21, -176201.70, -176052.03, -176067.59, -175823.28, 30217.14, 45646.51, -176450.55, -176292.72, -0.15, 0.62, 0.80
22, -176082.39, -176035.11, -176051.45, -175890.31, 30193.07, 45619.75, -176414.47, -176291.78, -0.15, 0.62, 0.80
23, -175945.33, -176009.31, -176029.95, -176011.78, 30110.06, 45531.22, -176367.48, -176300.97, -0.15, 0.62, 0.80
24, -175899.30, -176031.31, -176039.53, -175934.42, 30016.04, 45431.04, -176387.84, -176283.39, -0.14, 0.62, 0.80
25, -175990.91, -176050.73, -176061.31, -175810.44, 30001.16, 45415.95, -176451.02, -176274.66, -0.14, 0.62, 0.80
26, -176106.84, -176037.77, -176041.69, -175856.39, 29997.63, 45411.64, -176414.78, -176265.92, -0.14, 0.62, 0.80
27, -176211.80, -176012.58, -176018.31, -175984.70, 29931.94, 45341.38, -176364.47, -176286.48, -0.14, 0.62, 0.80
28, -176161.52, -175995.78, -176008.06, -175981.33, 29813.43, 45219.57, -176349.92, -176301.08, -0.14, 0.62, 0.80
29, -176074.31, -176014.23, -176033.70, -175831.80, 29747.76, 45154.41, -176406.94, -176267.34, -0.14, 0.62, 0.81
30, -175914.73, -176014.75, -176033.75, -175833.61, 29723.51, 45132.35, -176403.69, -176257.30, -0.14, 0.62, 0.81
31, -175858.94, -176011.47, -176013.66, -175955.81, 29665.99, 45074.13, -176355.19, -176251.64, -0.14, 0.62, 0.81
32, -175993.03, -175999.27, -176007.00, -175944.64, 29568.29, 44972.82, -176348.70, -176250.56, -0.14, 0.62, 0.81
33, -176163.28, -176016.42, -176029.08, -175806.55, 29515.72, 44924.17, -176403.20, -176249.91, -0.14, 0.62, 0.81
34, -176153.94, -176009.86, -176019.25, -175834.89, 29493.55, 44911.43, -176399.05, -176246.81, -0.14, 0.62, 0.81
35, -176051.19, -175979.38, -175992.31, -175962.45, 29421.55, 44843.68, -176341.98, -176251.95, -0.15, 0.62, 0.80
36, -175970.77, -175964.58, -175982.16, -175965.39, 29287.00, 44709.48, -176323.63, -176252.19, -0.15, 0.62, 0.80
37, -175845.44, -175995.66, -176007.69, -175827.59, 29192.18, 44620.74, -176370.28, -176235.59, -0.15, 0.62, 0.80
38, -175846.58, -176011.31, -176017.55, -175788.59, 29175.64, 44614.21, -176407.52, -176229.39, -0.15, 0.62, 0.80
39, -175945.44, -175994.97, -175997.05, -175892.83, 29135.92, 44580.73, -176356.08, -176227.77, -0.15, 0.62, 0.80
40, -176117.38, -175968.53, -175976.33, -175949.48, 29036.10, 44481.40, -176316.41, -176260.16, -0.15, 0.62, 0.81
41, -176194.02, -175971.72, -175982.47, -175831.42, 28925.03, 44375.43, -176340.70, -176244.66, -0.15, 0.62, 0.81
42, -176097.23, -175985.83, -175999.66, -175763.03, 28879.68, 44342.91, -176381.56, -176220.72, -0.15, 0.62, 0.81
43, -175985.47, -175960.48, -175978.50, -175875.02, 28822.44, 44296.64, -176343.81, -176223.06, -0.15, 0.62, 0.81
44, -175856.25, -175949.44, -175964.02, -175966.81, 28704.29, 44183.83, -176305.72, -176248.94, -0.15, 0.62, 0.81
45, -175855.67, -175970.19, -175976.42, -175858.95, 28589.20, 44075.70, -176329.75, -176229.16, -0.14, 0.62, 0.81
46, -175962.61, -175987.50, -175995.53, -175751.45, 28555.31, 44054.30, -176386.17, -176213.95, -0.14, 0.62, 0.81
47, -176100.61, -175976.75, -175978.61, -175828.22, 28522.19, 44031.55, -176352.16, -176214.83, -0.14, 0.62, 0.81
48, -176180.73, -175937.03, -175948.88, -175944.30, 28413.67, 43931.21, -176287.73, -176219.84, -0.14, 0.62, 0.81
49, -176127.67, -175936.92, -175950.02, -175886.34, 28269.99, 43796.32, -176295.41, -176211.72, -0.14, 0.62, 0.81
50, -176041.94, -175957.48, -175975.41, -175757.95, 28194.24, 43737.69, -176356.52, -176199.05, -0.13, 0.63, 0.82
51, -175911.94, -175944.34, -175962.20, -175816.67, 28143.77, 43701.95, -176329.23, -176195.86, -0.13, 0.63, 0.82
52, -175818.50, -175929.05, -175939.77, -175931.06, 28038.74, 43606.89, -176270.92, -176177.88, -0.13, 0.63, 0.82
53, -175955.98, -175931.30, -175939.53, -175859.97, 27910.13, 43487.17, -176283.27, -176180.89, -0.13, 0.63, 0.82
54, -176117.91, -175951.00, -175964.39, -175722.64, 27839.12, 43431.81, -176345.13, -176180.91, -0.13, 0.63, 0.82
55, -176060.69, -175943.52, -175953.89, -175764.88, 27792.94, 43403.51, -176329.84, -176181.97, -0.13, 0.63, 0.80
56, -175972.27, -175910.14, -175922.91, -175903.48, 27689.94, 43314.80, -176262.25, -176176.53, -0.13, 0.63, 0.80
57, -175906.45, -175896.27, -175917.08, -175896.69, 27532.63, 43170.74, -176253.92, -176173.30, -0.13, 0.63, 0.80
58, -175789.89, -175926.19, -175944.13, -175756.67, 27429.03, 43084.91, -176317.13, -176168.75, -0.13, 0.63, 0.80
59, -175795.86, -175945.69, -175954.78, -175716.88, 27393.02, 43068.97, -176344.23, -176171.17, -0.13, 0.63, 0.80
60, -175915.84, -175930.00, -175929.23, -175842.11, 27324.83, 43014.93, -176287.63, -176173.42, -0.13, 0.63, 0.80
61, -176103.16, -175899.64, -175913.00, -175913.45, 27195.28, 42897.36, -176251.36, -176195.59, -0.13, 0.63, 0.80
62, -176133.59, -175907.28, -175921.09, -175801.72, 27066.93, 42789.08, -176282.88, -176172.36, -0.13, 0.63, 0.80
63, -176046.72, -175917.66, -175930.94, -175708.52, 26999.36, 42746.32, -176313.50, -176154.34, -0.13, 0.63, 0.80
64, -175952.09, -175894.72, -175912.61, -175826.11, 26916.77, 42682.73, -176268.06, -176158.89, -0.13, 0.63, 0.80
65, -175889.20, -175870.77, -175893.78, -175900.95, 26763.22, 42547.73, -176227.27, -176156.80, -0.13, 0.63, 0.80
66, -175793.14, -175891.70, -175908.48, -175799.64, 26620.28, 42426.47, -176270.02, -176143.97, -0.14, 0.63, 0.80
67, -175747.67, -175926.00, -175929.72, -175694.47, 26563.95, 42393.19, -176321.95, -176142.83, -0.14, 0.63, 0.80
68, -175857.34, -175908.69, -175911.03, -175786.77, 26505.10, 42355.04, -176274.33, -176141.03, -0.14, 0.63, 0.80
69, -176050.06, -175878.22, -175886.78, -175884.66, 26379.44, 42248.59, -176221.95, -176157.67, -0.14, 0.63, 0.80
70, -176113.50, -175879.50, -175886.42, -175809.06, 26227.69, 42118.31, -176241.22, -176159.36, -0.14, 0.63, 0.80
71, -176041.69, -175896.22, -175907.70, -175684.14, 26140.39, 42058.20, -176289.63, -176135.78, -0.14, 0.64, 0.80
72, -175946.83, -175882.98, -175896.52, -175757.89, 26066.76, 42010.15, -176262.44, -176133.64, -0.14, 0.64, 0.80
73, -175878.88, -175845.06, -175870.42, -175885.52, 25928.16, 41893.02, -176203.31, -176134.84, -0.14, 0.64, 0.80
74, -175801.00, -175851.58, -175874.50, -175835.63, 25761.59, 41748.54, -176222.36, -176127.98, -0.14, 0.64, 0.80
75, -175735.44, -175899.11, -175901.72, -175690.56, 25675.29, 41690.43, -176290.22, -176117.81, -0.14, 0.64, 0.80
76, -175833.05, -175889.47, -175891.61, -175713.34, 25621.83, 41664.97, -176268.75, -176115.00, -0.14, 0.63, 0.80
77, -176018.53, -175859.20, -175864.25, -175841.64, 25513.20, 41579.14, -176211.30, -176127.14, -0.14, 0.63, 0.80
78, -176112.00, -175840.41, -175850.08, -175820.06, 25348.42, 41436.96, -176192.98, -176140.91, -0.14, 0.63, 0.80
79, -176061.09, -175856.95, -175868.75, -175688.34, 25227.65, 41345.92, -176244.75, -176107.17, -0.14, 0.63, 0.80
80, -175973.25, -175860.38, -175870.38, -175685.72, 25155.84, 41304.41, -176248.23, -176102.80, -0.14, 0.63, 0.80
81, -175900.38, -175828.61, -175843.16, -175827.00, 25034.71, 41209.04, -176180.27, -176104.61, -0.14, 0.62, 0.79
82, -175855.83, -175818.75, -175838.69, -175820.73, 24858.69, 41058.34, -176172.13, -176096.11, -0.14, 0.62, 0.79
83, -175766.33, -175836.41, -175856.59, -175694.98, 24728.16, 40956.75, -176231.25, -176088.09, -0.14, 0.62, 0.79
84, -175703.95, -175864.64, -175868.86, -175655.41, 24665.64, 40924.90, -176255.84, -176084.41, -0.14, 0.62, 0.79
85, -175825.19, -175847.45, -175849.48, -175784.22, 24580.57, 40868.00, -176210.23, -176090.08, -0.14, 0.62, 0.79
86, -176028.45, -175816.36, -175829.56, -175834.34, 24427.42, 40739.76, -176156.89, -176102.34, -0.14, 0.64, 0.79
87, -176059.86, -175825.19, -175836.16, -175729.20, 24281.24, 40622.93, -176202.11, -176078.39, -0.14, 0.64, 0.79
88, -175981.69, -175839.58, -175850.73, -175646.33, 24200.52, 40575.37, -176240.91, -176069.52, -0.14, 0.64, 0.79
89, -175903.73, -175811.03, -175823.95, -175770.84, 24095.98, 40500.33, -176174.72, -176069.09, -0.14, 0.64, 0.79
90, -175857.73, -175792.91, -175809.42, -175810.52, 23923.76, 40355.36, -176140.75, -176057.52, -0.14, 0.64, 0.79
91, -175810.86, -175797.41, -175819.75, -175714.81, 23764.69, 40226.12, -176178.33, -176066.31, -0.15, 0.65, 0.79
92, -175694.11, -175813.27, -175841.41, -175612.20, 23675.17, 40170.31, -176222.13, -176064.14, -0.15, 0.65, 0.79
93, -175685.80, -175822.70, -175825.91, -175706.52, 23597.32, 40123.35, -176191.89, -176052.80, -0.15, 0.65, 0.79
94, -175857.94, -175803.89, -175807.48, -175796.28, 23464.55, 40018.25, -176150.11, -176065.83, -0.15, 0.65, 0.79
95, -176042.80, -175792.59, -175802.20, -175717.08, 23310.16, 39891.52, -176153.36, -176075.77, -0.15, 0.65, 0.79
96, -176015.27, -175812.41, -175823.64, -175606.75, 23210.32, 39823.16, -176207.72, -176042.25, -0.15, 0.65, 0.79
97, -175929.95, -175801.78, -175809.77, -175696.23, 23124.11, 39767.13, -176182.17, -176046.72, -0.14, 0.65, 0.79
98, -175869.38, -175771.94, -175786.73, -175798.81, 22975.22, 39646.61, -176126.55, -176073.72, -0.14, 0.65, 0.79
99, -175831.47, -175770.58, -175785.06, -175745.97, 22794.64, 39494.30, -176125.64, -176067.17, -0.14, 0.65, 0.79
100, -175770.88, -175783.70, -175805.66, -175622.19, 22673.88, 39407.00, -176188.53, -176035.20, -0.14, 0.65, 0.79
101, -175644.86, -175794.72, -175801.19, -175654.19, 22592.67, 39359.18, -176179.13, -176034.38, -0.14, 0.65, 0.79
102, -175707.30, -175775.31, -175780.34, -175777.16, 22473.14, 39267.10, -176120.77, -176029.45, -0.14, 0.65, 0.80
103, -175927.47, -175765.27, -175775.03, -175737.20, 22312.81, 39131.85, -176119.17, -176013.09, -0.14, 0.65, 0.80
104, -176010.30, -175782.97, -175794.30, -175609.69, 22198.54, 39050.33, -176179.27, -176021.92, -0.14, 0.65, 0.80
105, -175935.06, -175774.53, -175784.91, -175645.14, 22116.67, 39001.07, -176164.03, -176021.50, -0.14, 0.65, 0.80
106, -175875.97, -175745.08, -175756.05, -175755.81, 21977.31, 38891.72, -176096.61, -176007.78, -0.14, 0.65, 0.80
107, -175839.25, -175737.03, -175751.58, -175719.19, 21791.74, 38733.58, -176086.66, -175997.42, -0.14, 0.64, 0.80
108, -175790.42, -175754.23, -175772.64, -175606.75, 21651.38, 38625.55, -176145.20, -176004.95, -0.14, 0.64, 0.80
109, -175671.41, -175764.13, -175781.44, -175611.13, 21567.53, 38580.45, -176160.66, -176008.50, -0.14, 0.64, 0.80
110, -175640.20, -175755.30, -175757.84, -175728.89, 21457.81, 38504.77, -176113.20, -175994.80, -0.14, 0.64, 0.80
111, -175833.64, -175737.66, -175742.31, -175695.56, 21300.85, 38376.96, -176083.77, -176017.80, -0.14, 0.64, 0.80
112, -175978.94, -175741.41, -175751.81, -175585.63, 21153.96, 38263.28, -176115.33, -175996.80, -0.15, 0.64, 0.80
113, -175918.13, -175754.13, -175765.53, -175568.91, 21068.26, 38213.10, -176153.75, -175993.42, -0.15, 0.64, 0.80
114, -175844.34, -175727.53, -175740.23, -175711.53, 20958.02, 38135.65, -176089.73, -175992.89, -0.15, 0.64, 0.80
115, -175803.13, -175711.28, -175723.16, -175743.25, 20780.62, 37987.19, -176055.13, -175978.47, -0.15, 0.64, 0.80
116, -175764.41, -175720.89, -175734.89, -175657.70, 20612.24, 37848.18, -176092.95, -175973.92, -0.15, 0.64, 0.80
117, -175664.13, -175740.52, -175756.66, -175545.92, 20512.29, 37784.73, -176142.63, -175979.56, -0.15, 0.64, 0.80
118, -175600.11, -175742.28, -175743.80, -175632.09, 20424.78, 37730.61, -176113.52, -175973.73, -0.15, 0.64, 0.80
119, -175765.34, -175716.27, -175723.44, -175718.44, 20286.78, 37621.63, -176070.27, -175988.52, -0.15, 0.64, 0.80
120, -175947.14, -175706.86, -175718.80, -175648.36, 20120.82, 37486.80, -176066.11, -175974.31, -0.15, 0.64, 0.80
121, -175918.06, -175724.69, -175736.92, -175533.47, 20008.74, 37411.75, -176118.86, -175962.52, -0.15, 0.64, 0.80
122, -175840.44, -175713.16, -175723.86, -175614.39, 19912.63, 37350.30, -176090.03, -175961.00, -0.14, 0.63, 0.80
123, -175789.94, -175694.31, -175704.31, -175714.25, 19753.64, 37222.65, -176028.39, -175941.59, -0.14, 0.63, 0.80
124, -175753.80, -175688.45, -175703.41, -175662.31, 19570.58, 37070.90, -176047.52, -175950.59, -0.14, 0.63, 0.80
125, -175698.50, -175695.52, -175717.72, -175537.41, 19444.21, 36983.26, -176097.61, -175950.16, -0.14, 0.63, 0.80
126, -175573.14, -175704.67, -175719.11, -175559.33, 19352.59, 36929.80, -176095.64, -175942.52, -0.14, 0.63, 0.80
127, -175592.02, -175700.95, -175699.59, -175682.58, 19232.16, 36841.35, -176050.53, -175958.31, -0.14, 0.63, 0.80
128, -175812.25, -175679.94, -175688.08, -175645.86, 19068.14, 36707.42, -176029.23, -175947.77, -0.15, 0.63, 0.80
129, -175908.48, -175701.00, -175711.06, -175529.19, 18941.61, 36616.98, -176093.19, -175942.36, -0.15, 0.63, 0.80
130, -175836.72, -175690.22, -175701.64, -175573.34, 18850.72, 36563.14, -176079.70, -175941.23, -0.15, 0.63, 0.80
131, -175778.98, -175662.47, -175676.53, -175694.73, 18710.04, 36452.86, -176008.00, -175932.03, -0.15, 0.63, 0.80
132, -175744.81, -175659.06, -175674.13, -175667.73, 18521.66, 36292.48, -176000.94, -175919.22, -0.15, 0.63, 0.80
133, -175699.44, -175673.84, -175692.34, -175557.34, 18374.56, 36179.38, -176066.41, -175921.14, -0.14, 0.64, 0.80
134, -175588.89, -175673.33, -175694.55, -175522.52, 18281.78, 36124.29, -176075.55, -175922.02, -0.14, 0.64, 0.80
135, -175550.08, -175676.02, -175676.17, -175646.81, 18169.31, 36046.05, -176025.88, -175912.22, -0.14, 0.64, 0.80
136, -175736.00, -175656.94, -175663.30, -175631.78, 18013.18, 35919.39, -176004.64, -175922.44, -0.14, 0.64, 0.80
137, -175903.28, -175658.20, -175665.89, -175524.75, 17863.87, 35802.66, -176031.41, -175909.20, -0.14, 0.64, 0.80
138, -175857.06, -175672.95, -175681.44, -175499.13, 17766.60, 35742.20, -176064.59, -175896.64, -0.15, 0.64, 0.81
139, -175786.05, -175646.13, -175658.31, -175636.22, 17651.37, 35660.93, -176008.61, -175907.38, -0.15, 0.64, 0.81
140, -175746.78, -175626.39, -175640.45, -175658.63, 17471.04, 35511.82, -175970.52, -175901.61, -0.15, 0.64, 0.81
141, -175710.66, -175637.67, -175650.48, -175577.47, 17296.52, 35371.59, -176006.39, -175890.45, -0.15, 0.64, 0.81
142, -175638.80, -175649.02, -175668.25, -175476.50, 17185.16, 35298.25, -176048.97, -175886.34, -0.15, 0.64, 0.81
143, -175519.59, -175652.20, -175657.45, -175574.41, 17087.06, 35234.04, -176024.86, -175887.69, -0.15, 0.64, 0.80
144, -175617.52, -175632.73, -175640.81, -175624.27, 16947.63, 35124.16, -175980.52, -175892.16, -0.15, 0.64, 0.80
145, -175837.22, -175628.30, -175635.20, -175540.17, 16787.70, 34996.10, -175992.89, -175880.19, -0.15, 0.64, 0.80
146, -174433.70, -172753.77, -166192.97, -171223.70, 14756.78, 30481.25, -171372.31, -173134.06, -0.15, 0.64, 0.80
147, -150062.39, -122118.46, -78856.80, -117171.23, 24990.90, 12161.47, -113584.77, -129635.66, -0.15, 0.64, 0.80
148, -107266.17, -38508.68, 9032.74, -49601.00, 55018.28, 22978.22, -34610.87, -60886.51, -0.14, 0.59, 0.69
149, -85650.07, -47.14, 35279.75, -26857.47, 66464.12, 37729.43, 4938.80, -23890.59, -0.14, 0.59, 0.69
150, -78866.16, 15499.46, 49189.04, -15077.77, 73305.38, 48348.74, 23208.51, -8159.88, -0.14, 0.59, 0.69
151, -71397.13, 23696.00, 54795.93, -11153.56, 73069.62, 53452.99, 32578.09, 35.38, -0.14, 0.59, 0.69
152, -57707.04, 30793.82, 56599.51, -11714.55, 69050.10, 54904.82, 39204.98, 7652.05, -0.14, 0.59, 0.69
153, -43084.59, 38721.47, 60619.02, -9642.79, 68992.66, 58507.70, 46117.41, 15666.14, -0.14, 0.64, 0.78
154, -34123.34, 45874.63, 70080.38, -2130.05, 75880.73, 66947.45, 52089.11, 19825.42, -0.14, 0.64, 0.78
155, -25553.50, 51735.59, 78359.83, 2230.82, 79041.17, 73530.46, 56271.99, 22171.88, -0.14, 0.64, 0.78
156, -12688.73, 56277.96, 81340.95, 1415.38, 76603.41, 75658.71, 60016.62, 26550.88, -0.14, 0.64, 0.78
157, 713.65, 59043.18, 82710.73, -539.03, 73321.41, 75739.30, 62762.22, 31204.76, -0.14, 0.64, 0.78
158, 7066.28, 59128.99, 86864.77, 1144.12, 74951.84, 77628.63, 62884.02, 30770.55, -0.14, 0.64, 0.78
159, 9350.70, 58419.41, 90052.07, 2450.44, 75593.22, 79228.57, 61270.42, 27320.85, -0.07, 0.70, 0.79
160, 14987.49, 58855.49, 90035.93, 121.71, 71770.29, 78201.11, 60718.98, 27064.34, -0.07, 0.70, 0.79
161, 22766.39, 60005.47, 90241.92, -2470.11, 67952.59, 76662.26, 61257.70, 29519.08, -0.07, 0.70, 0.79
162, 26562.34, 60181.96, 94140.42, -775.31, 69462.72, 77883.29, 60941.78, 29168.06, -0.07, 0.70, 0.79
163, 25579.63, 59200.87, 97364.84, 1414.87, 71174.01, 79616.30, 58552.94, 24438.55, -0.07, 0.70, 0.79
164, 26894.60, 58599.36, 95723.31, -891.21, 67176.29, 78205.80, 56750.07, 21747.24, -0.04, 0.74, 0.82
165, 31065.86, 58417.60, 93155.34, -4285.48, 61884.16, 75743.91, 56212.94, 24642.08, -0.04, 0.74, 0.82
166, 32637.21, 57571.03, 94673.09, -3831.22, 61096.79, 75815.82, 55427.94, 26435.65, -0.04, 0.74, 0.82
167, 29110.51, 56018.52, 98466.00, -621.20, 63655.26, 77909.98, 51934.50, 19579.21, -0.04, 0.74, 0.82
168, 27353.15, 55553.25, 98151.00, -1045.88, 61890.39, 76597.21, 43681.43, 14829.80, -0.04, 0.74, 0.82
169, 29721.85, 55866.75, 91698.88, -5225.59, 56156.99, 71351.28, 38861.21, 15881.43, -0.06, 0.75, 0.86
170, 29668.27, 59936.80, 85429.66, -8409.53, 52651.23, 66877.84, 38776.57, 16304.32, -0.06, 0.75, 0.86
171, 23327.71, 73894.93, 95570.09, -1184.49, 61054.91, 65959.55, 31963.87, 9517.89, -0.06, 0.75, 0.86
172, 19006.83, 93781.93, 112558.35, 4466.53, 66631.66, 62554.46, 27103.30, 4691.16, -0.06, 0.75, 0.86
173, 18342.60, 101664.52, 140118.56, 9967.36, 66794.95, 61958.63, 26334.45, 3962.94, -0.06, 0.75, 0.86
174, 18162.74, 101634.63, 145565.91, 14093.27, 66631.71, 61864.29, 26076.13, 3745.35, -0.18, 0.66, 0.95
175, 18025.81, 101418.31, 145155.64, 13906.32, 66548.80, 61831.94, 25877.69, 3592.51, -0.18, 0.66, 0.95
176, 17892.88, 101226.66, 144805.41, 13693.75, 66477.30, 61808.56, 25684.75, 3447.00, -0.18, 0.66, 0.95
177, 17750.59, 101027.63, 144452.28, 13462.72, 66381.52, 61754.85, 25461.41, 3270.42, -0.18, 0.66, 0.95
178, 17603.79, 100824.20, 144097.88, 13218.55, 66270.04, 61680.89, 25220.28, 3074.06, -0.18, 0.66, 0.95
179, 17465.85, 100648.45, 143780.36, 13010.75, 66190.84, 61639.63, 25012.67, 2913.06, -0.15, 0.57, 0.88
180, 17330.49, 100489.30, 143483.17, 12823.69, 66128.20, 61615.31, 24823.87, 2771.42, -0.15, 0.57, 0.88
181, 17191.75, 100319.72, 143172.66, 12612.93, 66041.20, 61561.48, 24608.00, 2601.59, -0.15, 0.57, 0.88
182, 17051.81, 100138.36, 142848.11, 12382.06, 65931.68, 61481.96, 24364.88, 2403.80, -0.15, 0.57, 0.88
183, 16914.73, 99974.16, 142549.00, 12181.50, 65849.34, 61431.89, 24152.58, 2236.92, -0.15, 0.57, 0.88
184, 16783.86, 99828.72, 142275.05, 12009.66, 65795.91, 61412.36, 23971.53, 2105.49, -0.10, 0.61, 0.80
185, 16652.07, 99672.35, 141984.00, 11814.33, 65718.06, 61368.07, 23763.10, 1945.67, -0.10, 0.61, 0.80
186, 16518.79, 99502.77, 141674.72, 11593.60, 65612.02, 61291.01, 23521.43, 1750.34, -0.10, 0.61, 0.80
187, 16387.76, 99344.96, 141382.83, 11391.52, 65523.89, 61231.93, 23301.96, 1576.56, -0.10, 0.61, 0.80
188, 16257.05, 99205.60, 141117.20, 11222.32, 65467.14, 61210.23, 23121.56, 1443.05, -0.10, 0.61, 0.80
189, 16128.73, 99060.09, 140841.28, 11037.65, 65393.29, 61171.20, 22920.80, 1289.27, -0.10, 0.61, 0.80
190, 15999.27, 98900.72, 140544.80, 10824.50, 65290.14, 61098.31, 22685.50, 1098.52, -0.10, 0.63, 0.75
191, 15871.26, 98747.55, 140256.03, 10621.35, 65195.32, 61034.83, 22459.66, 918.75, -0.10, 0.63, 0.75
192, 15747.23, 98616.59, 139997.58, 10459.23, 65138.70, 61014.14, 22280.35, 787.21, -0.10, 0.63, 0.75
193, 15624.25, 98482.43, 139733.33, 10287.97, 65072.79, 60980.14, 22089.85, 644.98, -0.10, 0.63, 0.75
194, 15500.98, 98330.75, 139445.17, 10085.87, 64974.82, 60909.80, 21860.03, 461.65, -0.10, 0.63, 0.75
195, 15378.31, 98177.87, 139158.36, 9882.11, 64874.55, 60837.11, 21629.58, 274.23, -0.11, 0.59, 0.74
196, 15254.86, 98046.02, 138902.25, 9717.55, 64813.20, 60808.79, 21444.93, 137.15, -0.11, 0.59, 0.74
197, 15132.94, 97918.27, 138649.28, 9553.36, 64752.69, 60781.68, 21262.57, 2.32, -0.11, 0.59, 0.74
198, 15012.28, 97775.73, 138372.63, 9358.38, 64660.78, 60718.78, 21042.36, -173.09, -0.11, 0.59, 0.74
199, 14891.38, 97628.35, 138089.14, 9154.00, 64557.96, 60642.14, 20809.21, -361.14, -0.11, 0.59, 0.74
200, 14772.54, 97501.46, 137836.63, 8989.47, 64494.10, 60610.60, 20621.85, -502.11, -0.13, 0.59, 0.77
201, 14654.65, 97379.46, 137590.92, 8834.91, 64437.86, 60587.60, 20445.01, -631.93, -0.13, 0.59, 0.77
202, 14534.65, 97241.48, 137322.83, 8648.58, 64351.79, 60529.04, 20232.53, -798.81, -0.13, 0.59, 0.77
203, 14415.91, 97093.05, 137040.69, 8444.56, 64246.54, 60448.48, 19996.90, -989.31, -0.13, 0.59, 0.77
204, 14296.02, 96960.16, 136784.67, 8273.70, 64172.66, 60406.05, 19800.05, -1140.10, -0.13, 0.59, 0.77
205, 14176.66, 96839.91, 136544.44, 8121.69, 64120.52, 60387.82, 19627.80, -1265.35, -0.13, 0.60, 0.81
206, 14058.40, 96709.05, 136284.80, 7943.00, 64041.32, 60338.44, 19424.29, -1424.25, -0.13, 0.60, 0.81
207, 13943.22, 96566.44, 136007.00, 7742.44, 63936.92, 60261.48, 19191.23, -1613.17, -0.13, 0.60, 0.81
208, 13829.27, 96436.93, 135749.56, 7568.48, 63859.89, 60214.57, 18991.03, -1768.43, -0.13, 0.60, 0.81
209, 13714.38, 96321.02, 135514.36, 7421.25, 63810.32, 60197.80, 18825.04, -1890.49, -0.13, 0.60, 0.81
210, 13598.49, 96194.04, 135262.36, 7251.82, 63737.67, 60153.21, 18630.92, -2039.75, -0.13, 0.61, 0.83
211, 13481.66, 96053.29, 134988.53, 7054.61, 63634.59, 60074.80, 18401.32, -2227.02, -0.13, 0.61, 0.83
212, 13365.18, 95919.05, 134725.42, 6872.94, 63546.28, 60015.06, 18189.65, -2394.94, -0.13, 0.61, 0.83
213, 13252.15, 95804.91, 134490.84, 6725.26, 63493.86, 59996.98, 18021.56, -2516.63, -0.13, 0.61, 0.83
214, 13140.30, 95685.20, 134246.77, 6563.01, 63426.98, 59960.96, 17834.54, -2657.56, -0.13, 0.61, 0.83
215, 13025.72, 95549.50, 133978.94, 6370.94, 63327.54, 59889.06, 17608.21, -2838.81, -0.13, 0.63, 0.85
216, 12913.18, 95416.42, 133716.64, 6186.27, 63236.32, 59824.57, 17391.49, -3011.88, -0.13, 0.63, 0.85
217, 12801.83, 95302.90, 133482.83, 6039.87, 63184.38, 59804.50, 17221.59, -3136.02, -0.13, 0.63, 0.85
218, 12690.14, 95186.94, 133244.25, 5885.75, 63123.29, 59775.00, 17041.95, -3269.90, -0.13, 0.63, 0.85
219, 12578.47, 95054.86, 132982.23, 5700.12, 63028.25, 59706.29, 16821.56, -3445.32, -0.13, 0.63, 0.85
220, 12466.15, 94920.84, 132717.02, 5509.88, 62928.94, 59632.44, 16596.06, -3625.54, -0.13, 0.63, 0.85
221, 12355.69, 94807.78, 132481.94, 5360.82, 62870.94, 59608.99, 16422.14, -3753.06, -0.12, 0.64, 0.86
222, 12246.23, 94696.36, 132248.42, 5214.57, 62813.68, 59587.74, 16249.74, -3878.85, -0.12, 0.64, 0.86
223, 12135.97, 94568.30, 131990.53, 5036.09, 62724.34, 59526.63, 16036.62, -4047.54, -0.12, 0.64, 0.86
224, 12026.87, 94433.93, 131725.55, 4845.66, 62624.64, 59448.89, 15810.08, -4230.81, -0.12, 0.64, 0.86
225, 11917.99, 94319.13, 131490.38, 4694.18, 62562.31, 59416.30, 15630.75, -4364.80, -0.12, 0.64, 0.86
226, 11810.01, 94210.66, 131263.92, 4554.10, 62510.47, 59397.73, 15465.24, -4485.19, -0.11, 0.63, 0.85
227, 11700.11, 94086.05, 131012.78, 4383.49, 62428.49, 59341.27, 15261.90, -4644.89, -0.11, 0.63, 0.85
228, 11588.40, 93951.71, 130745.14, 4190.93, 62325.18, 59259.97, 15032.55, -4832.92, -0.11, 0.63, 0.85
229, 11478.83, 93835.16, 130505.06, 4033.10, 62255.98, 59219.85, 14845.67, -4977.53, -0.11, 0.63, 0.85
230, 11371.47, 93729.38, 130281.92, 3897.14, 62205.84, 59204.72, 14683.31, -5093.54, -0.11, 0.63, 0.85
231, 11263.36, 93609.98, 130037.95, 3732.58, 62128.04, 59156.48, 14487.33, -5245.37, -0.10, 0.63, 0.83
232, 11155.58, 93478.19, 129773.58, 3543.51, 62024.59, 59076.38, 14259.14, -5431.90, -0.10, 0.63, 0.83
233, 11048.36, 93358.74, 129528.60, 3381.35, 61946.88, 59026.84, 14061.42, -5584.56, -0.10, 0.63, 0.83
234, 10942.72, 93254.29, 129307.99, 3248.33, 61900.72, 59014.08, 13902.09, -5697.73, -0.10, 0.63, 0.83
235, 10836.64, 93138.55, 129068.18, 3090.71, 61831.41, 58973.49, 13714.76, -5842.32, -0.10, 0.63, 0.83
236, 10726.92, 93006.86, 128802.28, 2898.71, 61727.49, 58893.61, 13485.54, -6029.65, -0.09, 0.62, 0.81
237, 10618.78, 92884.10, 128551.20, 2726.00, 61641.15, 58833.68, 13277.23, -6194.16, -0.09, 0.62, 0.81
238, 10512.94, 92781.73, 128332.63, 2594.55, 61594.57, 58817.47, 13118.37, -6307.44, -0.09, 0.62, 0.81
239, 10406.26, 92671.63, 128102.47, 2445.75, 61531.31, 58783.95, 12939.27, -6441.01, -0.09, 0.62, 0.81
240, 10298.83, 92544.04, 127845.00, 2261.30, 61434.95, 58710.68, 12717.94, -6618.55, -0.09, 0.62, 0.81
241, 10192.13, 92419.68, 127589.81, 2081.60, 61343.29, 58641.90, 12501.35, -6791.15, -0.09, 0.62, 0.79
242, 10087.59, 92317.64, 127369.76, 1948.24, 61295.41, 58625.88, 12340.49, -6907.29, -0.09, 0.62, 0.79
243, 9982.83, 92211.31, 127143.78, 1807.05, 61239.42, 58600.95, 12170.70, -7033.13, -0.09, 0.62, 0.79
244, 9874.42, 92084.40, 126888.97, 1627.83, 61144.98, 58530.45, 11953.96, -7206.81, -0.09, 0.62, 0.79
245, 9766.28, 91954.98, 126630.63, 1444.12, 61045.16, 58454.19, 11729.88, -7388.28, -0.09, 0.62, 0.79
246, 9662.93, 91849.51, 126406.51, 1305.30, 60991.98, 58431.66, 11563.25, -7510.16, -0.08, 0.63, 0.81
247, 9560.49, 91747.60, 126185.05, 1170.96, 60942.32, 58412.62, 11399.86, -7627.58, -0.08, 0.63, 0.81
248, 9456.93, 91627.20, 125937.23, 1000.55, 60855.86, 58351.98, 11191.63, -7792.62, -0.08, 0.63, 0.81
249, 9352.48, 91497.84, 125675.95, 811.99, 60751.57, 58270.39, 10962.28, -7980.44, -0.08, 0.63, 0.81
250, 9251.10, 91390.78, 125447.69, 666.22, 60691.29, 58239.66, 10787.53, -8110.40, -0.08, 0.63, 0.81
251, 9149.95, 91290.66, 125231.50, 534.99, 60646.00, 58226.58, 10629.75, -8223.68, -0.08, 0.63, 0.81
252, 9044.01, 91172.74, 124987.80, 369.43, 60564.31, 58169.70, 10428.90, -8382.95, -0.08, 0.65, 0.81
253, 8936.63, 91043.21, 124726.46, 181.97, 60459.10, 58085.77, 10198.16, -8571.54, -0.08, 0.65, 0.81
254, 8832.69, 90931.37, 124492.69, 28.36, 60390.34, 58045.06, 10014.43, -8713.36, -0.08, 0.65, 0.81
255, 8732.36, 90833.42, 124279.78, -97.34, 60347.27, 58033.31, 9861.79, -8821.14, -0.08, 0.65, 0.81
0, 8631.46, 90722.55, 124044.45, -251.77, 60275.10, 57987.93, 9671.00, -8968.62, -0.08, 0.65, 0.81
1, 8527.79, 90596.22, 123784.20, -439.68, 60170.38, 57906.02, 9441.29, -9157.26, -0.08, 0.64, 0.81
2, 8425.13, 90481.60, 123543.14, -600.12, 60092.46, 57855.72, 9246.00, -9309.90, -0.08, 0.64, 0.81
3, 8326.70, 90384.20, 123329.63, -724.40, 60050.69, 57845.60, 9094.70, -9416.61, -0.08, 0.64, 0.81
4, 8225.13, 90275.30, 123097.40, -874.15, 59984.44, 57807.02, 8911.75, -9556.33, -0.08, 0.64, 0.81
5, 8121.28, 90151.47, 122841.45, -1058.02, 59882.64, 57728.65, 8684.50, -9742.61, -0.08, 0.64, 0.81
6, 8018.44, 90034.74, 122595.72, -1226.44, 59794.80, 57666.40, 8476.99, -9907.61, -0.08, 0.64, 0.82
7, 7918.40, 89937.59, 122384.54, -1350.92, 59750.32, 57653.28, 8324.59, -10015.53, -0.08, 0.64, 0.82
8, 7818.80, 89833.36, 122163.81, -1491.89, 59690.46, 57622.93, 8152.53, -10143.51, -0.08, 0.64, 0.82
9, 7714.82, 89711.36, 121911.73, -1668.92, 59592.30, 57549.17, 7933.55, -10321.72, -0.08, 0.64, 0.82
10, 7612.11, 89590.98, 121660.72, -1840.20, 59495.96, 57478.27, 7719.02, -10494.90, -0.08, 0.64, 0.82
11, 7513.90, 89492.80, 121446.92, -1966.57, 59446.68, 57461.89, 7563.05, -10605.99, -0.08, 0.64, 0.82
12, 7414.10, 89390.50, 121228.93, -2101.31, 59389.52, 57436.27, 7396.64, -10727.99, -0.08, 0.64, 0.82
13, 7312.57, 89269.89, 120980.89, -2273.69, 59293.43, 57365.73, 7184.14, -10900.12, -0.08, 0.64, 0.82
14, 7210.25, 89148.16, 120727.96, -2452.79, 59188.69, 57285.15, 6961.72, -11081.88, -0.08, 0.64, 0.82
15, 7110.25, 89050.46, 120511.41, -2584.44, 59133.68, 57261.55, 6799.13, -11200.73, -0.08, 0.64, 0.82
16, 7012.95, 88953.15, 120299.01, -2712.07, 59086.10, 57243.24, 6644.53, -11312.46, -0.08, 0.63, 0.82
17, 6911.92, 88836.91, 120057.36, -2878.10, 58998.41, 57179.89, 6440.50, -11476.57, -0.08, 0.63, 0.82
18, 6809.26, 88713.24, 119801.30, -3060.85, 58890.14, 57096.64, 6212.69, -11665.49, -0.08, 0.63, 0.82
19, 6709.57, 88610.90, 119578.30, -3198.85, 58827.09, 57063.38, 6040.47, -11795.17, -0.08, 0.63, 0.82
20, 6610.08, 88516.17, 119367.38, -3323.35, 58780.48, 57048.78, 5888.63, -11904.38, -0.08, 0.63, 0.82
21, 6509.83, 88404.34, 119131.17, -3482.16, 58696.42, 56993.13, 5693.84, -12060.53, -0.09, 0.62, 0.82
22, 6409.14, 88279.06, 118873.10, -3666.74, 58586.07, 56907.36, 5464.62, -12250.21, -0.09, 0.62, 0.82
23, 6309.81, 88171.21, 118642.61, -3814.21, 58514.29, 56865.00, 5281.83, -12390.38, -0.09, 0.62, 0.82
24, 6214.41, 88079.52, 118437.48, -3932.88, 58472.54, 56856.27, 5136.12, -12492.66, -0.09, 0.62, 0.82
25, 6115.91, 87971.05, 118208.29, -4081.12, 58397.04, 56810.89, 4950.80, -12636.83, -0.09, 0.62, 0.82
26, 6014.83, 87846.29, 117952.12, -4262.03, 58286.39, 56725.69, 4723.64, -12825.43, -0.09, 0.62, 0.82
27, 5915.14, 87734.57, 117716.33, -4418.34, 58201.77, 56670.28, 4529.38, -12979.57, -0.09, 0.63, 0.82
28, 5817.73, 87642.28, 117511.09, -4538.25, 58156.51, 56659.88, 4382.62, -13085.14, -0.09, 0.63, 0.82
29, 5719.83, 87538.95, 117286.17, -4681.57, 58086.93, 56621.28, 4204.45, -13220.92, -0.09, 0.63, 0.82
30, 5619.00, 87417.09, 117035.16, -4859.92, 57979.44, 56539.50, 3980.58, -13403.87, -0.09, 0.63, 0.82
31, 5519.56, 87303.19, 116795.88, -5021.94, 57886.61, 56475.21, 3776.37, -13566.95, -0.09, 0.63, 0.82
32, 5424.57, 87213.33, 116593.47, -5139.49, 57843.12, 56465.69, 3631.67, -13668.09, -0.08, 0.62, 0.82
33, 5327.67, 87114.16, 116377.62, -5275.08, 57782.30, 56434.60, 3464.61, -13793.42, -0.08, 0.62, 0.82
34, 5226.87, 86995.67, 116129.40, -5449.67, 57676.86, 56357.93, 3247.80, -13970.76, -0.08, 0.62, 0.82
35, 5126.64, 86879.46, 115882.77, -5620.46, 57574.83, 56284.02, 3032.57, -14144.32, -0.08, 0.62, 0.82
36, 5029.84, 86784.65, 115672.02, -5744.69, 57523.75, 56266.69, 2879.78, -14254.33, -0.08, 0.62, 0.82
