%OpenBCI Raw EEG Data
%
%Sample Rate = 250.0 Hz
%First Column = SampleIndex
%Other Columns = EEG data in microvolts followed by Accel Data (in G) interleaved with Aux Data
0, -14756.17, 26550.76, -50300.92, -77138.13, -89944.67, -110141.39, -171919.80, -180324.61, 0.00, -0.02, 0.51
1, -23540.28, 27293.00, -59150.67, -85772.60, -98830.23, -118814.65, -180830.28, -187500.02, 0.00, 0.00, 0.00
2, -19316.51, 24278.87, -54892.20, -81587.73, -94556.57, -114637.91, -176395.52, -184480.58, 0.00, 0.00, 0.00
3, -8855.47, 22764.00, -44352.30, -71306.91, -84007.93, -104343.86, -165823.47, -174283.19, 0.00, 0.00, 0.00
4, -12849.66, 26036.27, -48378.67, -75281.61, -88095.30, -108340.27, -169950.72, -178444.61, 0.00, 0.00, 0.00
5, -22754.10, 27475.01, -58359.15, -85023.40, -98120.83, -118125.48, -180006.50, -187500.02, 0.00, 0.00, 0.00
6, -21015.60, 24897.14, -56605.21, -83278.41, -96357.02, -116400.80, -178111.91, -186024.00, 0.02, -0.04, 1.02
7, -9915.37, 22577.92, -45422.86, -72359.08, -85155.88, -105467.40, -166850.38, -175353.75, 0.00, 0.00, 0.00
8, -11158.30, 25445.63, -46678.60, -73627.13, -86461.28, -106750.56, -168200.63, -176744.06, 0.00, 0.00, 0.00
9, -21642.12, 27550.04, -57244.02, -83949.82, -97076.33, -117117.03, -178852.47, -186657.73, 0.00, 0.00, 0.00
10, -22448.88, 25547.06, -58054.61, -84713.16, -97883.47, -117906.48, -179564.45, -187256.14, 0.00, 0.00, 0.00
11, -11510.16, 22621.53, -47032.45, -73941.55, -86836.95, -107124.91, -168413.53, -176953.86, 0.00, 0.00, 0.00
12, -9836.69, 24812.42, -45349.59, -72339.95, -85195.21, -105530.90, -166818.48, -175398.02, 0.00, 0.00, 0.00
13, -20252.74, 27494.84, -55847.44, -82606.84, -95752.57, -115837.71, -177410.55, -185450.78, 0.00, 0.00, 0.00
14, -23477.51, 26120.54, -59092.94, -85749.36, -99005.64, -119010.56, -180604.64, -187500.02, 0.00, 0.00, 0.00
15, -13401.41, 22820.82, -48940.39, -75818.14, -88826.14, -109072.33, -170288.02, -178831.20, 0.00, 0.00, 0.00
16, -8821.00, 24156.00, -44327.24, -71350.81, -84240.05, -104603.12, -165745.47, -174346.34, 0.02, -0.04, 1.02
17, -18517.28, 27302.79, -54100.88, -80919.30, -94077.02, -114207.98, -175614.13, -183911.13, 0.00, 0.00, 0.00
18, -23918.04, 26602.93, -59540.91, -86208.80, -99533.97, -119532.59, -181049.59, -187500.02, 0.00, 0.00, 0.00
19, -15381.96, 23191.81, -50939.20, -77786.33, -90906.24, -111108.44, -172266.09, -180771.34, 0.00, 0.00, 0.00
20, -8236.28, 23549.71, -43741.87, -70786.88, -83723.10, -104103.34, -165113.72, -173724.39, 0.00, 0.00, 0.00
21, -16552.96, 26980.74, -52124.73, -79006.69, -92173.41, -112357.43, -173598.66, -182086.27, 0.00, 0.00, 0.00
22, -23909.35, 26998.18, -59535.37, -86227.48, -99612.38, -119615.85, -181042.91, -187500.02, 0.00, 0.00, 0.00
23, -17424.19, 23695.22, -53001.26, -79818.86, -93054.22, -113209.80, -174320.28, -182739.81, 0.00, 0.00, 0.00
24, -8327.19, 23093.53, -43838.96, -70892.38, -83891.44, -104270.75, -165169.47, -173804.50, 0.00, 0.00, 0.00
25, -14713.13, 26559.15, -50279.51, -77220.47, -90394.34, -110625.44, -171709.63, -180325.98, 0.00, 0.00, 0.00
26, -23554.31, 27323.80, -59185.83, -85908.57, -99337.74, -119354.78, -180680.13, -187500.02, 0.02, -0.03, 1.02
27, -19429.16, 24318.88, -55025.97, -81816.34, -95161.34, -115276.15, -176353.56, -184599.78, 0.00, 0.00, 0.00
28, -8964.32, 22745.09, -44485.27, -71533.52, -84609.30, -104980.13, -165779.44, -174442.23, 0.00, 0.00, 0.00
29, -12900.17, 26032.63, -48456.48, -75453.83, -88637.38, -108923.35, -169850.05, -178539.52, 0.00, 0.00, 0.00
30, -22789.01, 27491.82, -58418.41, -85179.19, -98645.38, -118693.80, -179892.16, -187500.02, 0.00, 0.00, 0.00
31, -21100.83, 24929.44, -56712.57, -83484.01, -96931.27, -117017.68, -178049.31, -186091.03, 0.00, 0.00, 0.00
32, -10030.95, 22590.37, -45556.96, -72591.96, -85759.08, -106113.23, -166817.91, -175508.22, 0.00, 0.00, 0.00
33, -11159.13, 25408.93, -46697.66, -73748.59, -86949.38, -107283.84, -168054.52, -176785.78, 0.00, 0.00, 0.00
34, -21592.19, 27540.50, -57213.80, -84023.45, -97516.32, -117600.19, -178655.30, -186626.89, 0.00, 0.00, 0.00
35, -22422.87, 25538.68, -58048.28, -84809.24, -98348.30, -118410.30, -179400.08, -187244.20, 0.00, 0.00, 0.00
36, -11536.14, 22619.65, -47077.69, -74087.85, -87353.63, -107676.91, -168312.66, -177021.66, 0.02, -0.03, 1.01
37, -9782.64, 24785.60, -45313.67, -72408.20, -85630.02, -106001.94, -166637.17, -175385.34, 0.00, 0.00, 0.00
38, -20141.85, 27495.26, -55756.56, -82621.63, -96130.80, -116255.38, -177171.08, -185385.03, 0.00, 0.00, 0.00
39, -23414.75, 26140.23, -59055.41, -85815.92, -99435.89, -119479.55, -180422.92, -187500.02, 0.00, 0.00, 0.00
40, -13449.09, 22849.58, -49017.46, -75994.68, -89369.54, -109650.28, -170230.56, -178923.39, 0.00, 0.00, 0.00
41, -8839.80, 24164.98, -44376.64, -71498.11, -84754.73, -105152.52, -165659.34, -174408.38, 0.00, 0.00, 0.00
42, -18469.51, 27287.95, -54085.63, -81000.62, -94525.77, -114692.77, -175461.59, -183893.14, 0.00, 0.00, 0.00
43, -23918.85, 26622.20, -59575.02, -86336.41, -100030.55, -120063.22, -180946.69, -187500.02, 0.00, 0.00, 0.00
44, -15476.59, 23219.75, -51067.23, -78004.34, -91495.84, -111729.57, -172257.73, -180897.48, 0.00, 0.00, 0.00
45, -8319.32, 23556.26, -43858.41, -70993.43, -84300.09, -104713.13, -165094.38, -173854.13, 0.01, -0.03, 1.01
46, -16554.33, 26970.64, -52160.45, -79132.50, -92666.77, -112884.28, -173494.55, -182121.00, 0.00, 0.00, 0.00
47, -23922.20, 27029.29, -59585.08, -86364.37, -100116.68, -120153.72, -180955.73, -187500.02, 0.00, 0.00, 0.00
48, -17498.71, 23734.33, -53113.42, -80016.41, -93621.04, -113809.42, -174305.17, -182834.73, 0.00, 0.00, 0.00
49, -8362.39, 23088.61, -43909.04, -71049.69, -84418.76, -104831.38, -165115.44, -173884.19, 0.00, 0.00, 0.00
50, -14657.54, 26539.48, -50254.48, -77284.66, -90829.24, -111096.15, -171563.25, -180305.06, 0.00, 0.00, 0.00
51, -23531.07, 27291.63, -59194.93, -86003.63, -99804.47, -119858.25, -180563.22, -187500.02, 0.00, 0.00, 0.00
52, -19452.68, 24322.70, -55084.02, -81958.57, -95675.99, -115825.55, -176287.70, -184633.81, 0.00, 0.00, 0.00
53, -8976.97, 22768.09, -44530.66, -71662.28, -85111.77, -105516.59, -165706.95, -174493.47, 0.00, 0.00, 0.00
54, -12807.08, 26012.40, -48394.48, -75476.05, -89032.05, -109351.48, -169667.86, -178481.69, 0.00, 0.00, 0.00
55, -22712.50, 27474.16, -58376.70, -85220.74, -99058.70, -119137.88, -179724.14, -187500.02, 0.01, -0.03, 1.02
56, -21102.86, 24930.08, -56752.78, -83603.73, -97425.20, -117539.55, -177973.69, -186113.61, 0.00, 0.00, 0.00
57, -10069.55, 22605.53, -45636.05, -72748.91, -86290.41, -106670.27, -166792.25, -175594.45, 0.00, 0.00, 0.00
58, -11123.81, 25409.48, -46702.05, -73833.95, -87406.85, -107768.10, -167957.84, -176797.13, 0.00, 0.00, 0.00
59, -21522.74, 27538.20, -57183.25, -84076.46, -97939.10, -118051.12, -178526.53, -186587.30, 0.00, 0.00, 0.00
60, -22461.87, 25571.54, -58128.64, -84969.70, -98881.55, -118969.08, -179382.58, -187288.14, 0.00, 0.00, 0.00
61, -11639.58, 22637.00, -47227.63, -74313.89, -87954.83, -108302.73, -168365.16, -177174.66, 0.00, 0.00, 0.00
62, -9805.64, 24781.40, -45385.04, -72552.80, -86149.52, -106549.09, -166609.58, -175457.14, 0.00, 0.00, 0.00
63, -20090.71, 27468.04, -55753.05, -82691.80, -96574.89, -116727.47, -177068.17, -185369.72, 0.00, 0.00, 0.00
64, -23403.08, 26144.23, -59090.16, -85923.55, -99917.88, -119989.16, -180359.02, -187500.02, 0.00, 0.00, 0.00
65, -13511.54, 22858.64, -49124.26, -76173.31, -89925.27, -110232.01, -170243.44, -179030.67, 0.01, -0.03, 1.02
66, -8814.46, 24119.23, -44394.12, -71590.27, -85222.64, -105648.18, -165587.02, -174433.39, 0.00, 0.00, 0.00
67, -18333.88, 27253.30, -53989.43, -80984.30, -94880.09, -115080.88, -175277.17, -183814.28, 0.00, 0.00, 0.00
68, -23802.62, 26602.22, -59497.75, -86339.22, -100405.24, -120473.15, -180786.73, -187500.02, 0.00, 0.00, 0.00
69, -15418.99, 23233.45, -51050.49, -78064.72, -91930.98, -112199.02, -172174.39, -180904.31, 0.00, 0.00, 0.00
70, -8272.40, 23550.85, -43852.31, -71062.48, -84746.66, -105191.59, -165024.64, -173869.97, 0.00, 0.00, 0.00
71, -16424.38, 26945.61, -52069.93, -79116.86, -93027.63, -113279.77, -173339.61, -182056.06, 0.00, 0.00, 0.00
72, -23826.67, 27012.73, -59528.95, -86381.24, -100509.33, -120582.38, -180835.89, -187500.02, 0.00, 0.00, 0.00
73, -17521.11, 23743.43, -53176.27, -80148.91, -94133.72, -114355.27, -174313.73, -182908.47, 0.00, 0.00, 0.00
74, -8381.48, 23093.24, -43970.11, -71177.66, -84928.89, -105373.18, -165120.78, -173965.05, 0.00, 0.00, 0.00
75, -14591.87, 26525.06, -50231.57, -77329.63, -91253.97, -111552.88, -171482.38, -180299.05, 0.01, -0.03, 1.02
76, -23459.07, 27298.12, -59166.25, -86041.74, -100221.64, -120307.52, -180477.52, -187500.02, 0.00, 0.00, 0.00
77, -19483.21, 24339.82, -55158.11, -82095.45, -96195.34, -116376.08, -176314.78, -184699.86, 0.00, 0.00, 0.00
78, -9022.59, 22771.80, -44618.26, -71813.27, -85646.43, -106081.17, -165750.42, -174601.58, 0.00, 0.00, 0.00
79, -12763.81, 25991.81, -48391.73, -75541.31, -89477.77, -109828.98, -169623.97, -178500.72, 0.00, 0.00, 0.00
80, -22629.29, 27464.66, -58334.50, -85248.34, -99462.58, -119577.07, -179645.44, -187500.02, 0.00, 0.00, 0.00
81, -21115.83, 24958.25, -56807.71, -83727.06, -97926.72, -118074.47, -177991.38, -186165.03, 0.00, 0.00, 0.00
82, -10116.11, 22602.73, -45725.79, -72905.80, -86825.51, -107238.88, -166836.48, -175705.88, 0.00, 0.00, 0.00
83, -11081.82, 25391.04, -46703.12, -73902.04, -87851.14, -108248.71, -167909.55, -176816.64, 0.00, 0.00, 0.00
84, -21426.45, 27516.27, -57127.73, -84087.44, -98327.17, -118476.18, -178419.08, -186548.41, 0.01, -0.03, 1.02
85, -22428.19, 25579.63, -58132.88, -85038.82, -99330.16, -119453.22, -179345.66, -187296.06, 0.00, 0.00, 0.00
86, -11673.65, 22655.50, -47297.21, -74446.35, -88468.80, -108849.84, -168397.52, -177262.66, 0.00, 0.00, 0.00
87, -9754.52, 24756.90, -45366.35, -72601.73, -86577.55, -107012.03, -166556.41, -175461.67, 0.00, 0.00, 0.00
88, -19968.24, 27441.04, -55659.22, -82670.56, -96929.48, -117118.71, -176943.31, -185308.25, 0.00, 0.00, 0.00
89, -23350.35, 26155.79, -59066.50, -85970.84, -100341.20, -120448.27, -180312.13, -187500.02, 0.00, 0.00, 0.00
90, -13554.08, 22878.19, -49196.34, -76314.27, -90444.37, -110786.17, -170293.78, -179126.78, 0.00, 0.00, 0.00
91, -8824.54, 24131.75, -44430.50, -71697.46, -85706.60, -106169.44, -165600.73, -174500.05, 0.00, 0.00, 0.00
92, -18280.28, 27247.92, -53959.14, -81027.02, -95299.74, -115536.38, -175226.47, -183811.75, 0.00, 0.00, 0.00
93, -23814.49, 26633.73, -59531.28, -86447.02, -100891.13, -120992.47, -180803.92, -187500.02, 0.00, 0.00, 0.00
94, -15575.95, 23259.18, -51226.57, -78315.50, -92562.28, -112860.84, -172327.27, -181090.16, 0.01, -0.03, 1.02
95, -8362.35, 23554.51, -43959.20, -71248.62, -85308.98, -105787.49, -165106.05, -174002.05, 0.00, 0.00, 0.00
96, -16419.08, 26919.88, -52080.25, -79210.47, -93493.84, -113783.32, -173324.58, -182087.56, 0.00, 0.00, 0.00
97, -23802.46, 27007.52, -59519.32, -86457.46, -100958.53, -121069.45, -180803.64, -187500.02, 0.00, 0.00, 0.00
98, -17589.55, 23775.13, -53258.80, -80316.05, -94673.58, -114930.63, -174374.11, -182997.69, 0.00, 0.00, 0.00
99, -8422.05, 23096.79, -44024.26, -71317.46, -85436.68, -105918.34, -165151.38, -174047.53, 0.00, 0.00, 0.00
100, -14518.66, 26482.48, -50171.02, -77355.54, -91644.18, -111985.01, -171397.38, -180270.45, 0.00, 0.00, 0.00
101, -23359.52, 27279.25, -59077.11, -86043.77, -100586.98, -120714.88, -180368.31, -187500.02, 0.00, 0.00, 0.00
102, -19472.88, 24357.90, -55156.68, -82187.49, -96651.38, -116870.41, -176296.81, -184733.52, 0.00, 0.00, 0.00
103, -9034.46, 22765.54, -44638.60, -71925.79, -86122.79, -106594.86, -165752.75, -174653.13, 0.00, 0.00, 0.00
104, -12679.85, 25960.12, -48315.51, -75556.80, -89855.71, -110247.34, -169528.56, -178454.06, 0.02, -0.04, 1.02
105, -22509.03, 27448.46, -58222.76, -85227.06, -99805.45, -119960.40, -179511.97, -187456.98, 0.00, 0.00, 0.00
106, -21092.04, 24979.48, -56793.37, -83800.64, -98366.11, -118552.93, -177968.05, -186178.48, 0.00, 0.00, 0.00
107, -10147.71, 22618.65, -45767.34, -73032.27, -87320.35, -107771.28, -166878.52, -175774.69, 0.00, 0.00, 0.00
108, -11040.46, 25372.45, -46670.80, -73956.04, -88271.77, -108706.72, -167878.42, -176810.88, 0.00, 0.00, 0.00
109, -21324.32, 27514.17, -57034.81, -84082.56, -98686.28, -118873.32, -178328.69, -186493.83, 0.00, 0.00, 0.00
110, -22412.00, 25587.92, -58129.31, -85120.18, -99775.99, -119937.29, -179343.28, -187309.36, 0.00, 0.00, 0.00
111, -11731.63, 22654.86, -47367.35, -74601.18, -88986.96, -109407.18, -168467.06, -177356.55, 0.00, 0.00, 0.00
112, -9732.53, 24734.89, -45354.75, -72677.84, -87012.39, -107489.60, -166543.09, -175475.14, 0.00, 0.00, 0.00
113, -19874.54, 27415.51, -55576.65, -82673.87, -97291.58, -117526.95, -176854.84, -185256.30, 0.01, -0.03, 1.01
114, -23304.24, 26152.03, -59031.60, -86019.99, -100751.47, -120903.82, -180271.70, -187500.02, 0.00, 0.00, 0.00
115, -13600.39, 22896.93, -49256.61, -76455.32, -90945.47, -111330.73, -170350.38, -179203.50, 0.00, 0.00, 0.00
116, -8805.49, 24110.58, -44427.31, -71775.09, -86139.98, -106648.57, -165593.00, -174507.44, 0.00, 0.00, 0.00
117, -18167.27, 27218.34, -53863.10, -81013.98, -95637.75, -115923.52, -175121.94, -183739.69, 0.00, 0.00, 0.00
118, -23723.89, 26638.14, -59460.87, -86457.22, -101251.07, -121401.87, -180727.23, -187500.02, 0.00, 0.00, 0.00
119, -15596.55, 23286.63, -51271.57, -78434.64, -93033.66, -113378.03, -172370.25, -181145.45, 0.00, 0.00, 0.00
120, -8344.58, 23529.37, -43966.53, -71328.17, -85739.19, -106265.17, -165108.89, -174017.64, 0.00, 0.00, 0.00
121, -16303.12, 26900.88, -51988.86, -79194.51, -93825.73, -114165.66, -173229.13, -182015.33, 0.00, 0.00, 0.00
122, -23682.50, 27018.92, -59423.70, -86439.60, -101287.09, -121449.32, -180705.23, -187500.02, 0.00, 0.00, 0.00
123, -17581.41, 23790.28, -53275.11, -80409.46, -95117.24, -115424.16, -174390.47, -183035.77, 0.01, -0.03, 1.02
124, -8415.81, 23068.81, -44040.87, -71413.20, -85883.49, -106414.35, -165170.09, -174079.77, 0.00, 0.00, 0.00
125, -14394.99, 26468.58, -50068.69, -77338.48, -91971.50, -112364.05, -171297.33, -180189.72, 0.00, 0.00, 0.00
126, -23216.38, 27281.26, -58957.35, -86006.80, -100893.76, -121072.82, -180250.56, -187500.02, 0.00, 0.00, 0.00
127, -19431.69, 24384.54, -55141.42, -82249.70, -97059.59, -117328.20, -176291.13, -184744.63, 0.00, 0.00, 0.00
128, -9033.26, 22753.81, -44664.86, -72027.66, -86571.45, -107094.27, -165789.83, -174691.14, 0.00, 0.00, 0.00
129, -12560.58, 25945.21, -48223.02, -75543.80, -90185.69, -110630.72, -169448.22, -178377.48, 0.00, 0.00, 0.00
130, -22351.47, 27447.29, -58090.80, -85178.41, -100096.30, -120305.89, -179392.77, -187379.67, 0.00, 0.00, 0.00
131, -21013.12, 24970.52, -56741.55, -83831.58, -98736.10, -118976.07, -177926.94, -186165.08, 0.00, 0.00, 0.00
132, -10147.16, 22615.16, -45795.57, -73140.98, -87769.24, -108270.30, -166914.69, -175814.14, 0.00, 0.00, 0.00
133, -10918.80, 25338.90, -46575.60, -73945.63, -88598.06, -109085.65, -167791.33, -176728.38, 0.01, -0.03, 1.01
134, -21149.13, 27482.16, -56884.36, -84019.53, -98957.77, -119198.77, -178184.91, -186393.94, 0.00, 0.00, 0.00
135, -22290.41, 25608.24, -58034.16, -85112.96, -100104.72, -120313.67, -179262.86, -187268.70, 0.00, 0.00, 0.00
136, -11707.49, 22690.51, -47373.25, -74692.42, -89417.26, -109880.16, -168492.36, -177376.80, 0.00, 0.00, 0.00
137, -9618.13, 24715.20, -45273.21, -72680.65, -87353.16, -107874.19, -166479.28, -175402.17, 0.00, 0.00, 0.00
138, -19681.43, 27394.21, -55418.29, -82600.40, -97555.51, -117834.10, -176714.61, -185140.66, 0.00, 0.00, 0.00
139, -23162.91, 26145.04, -58926.95, -85998.00, -101067.99, -121260.24, -180192.97, -187500.02, 0.00, 0.00, 0.00
140, -13578.28, 22902.58, -49271.31, -76549.78, -91381.35, -111801.81, -170397.22, -179232.33, 0.00, 0.00, 0.00
141, -8723.64, 24096.32, -44382.20, -71809.89, -86515.28, -107058.62, -165578.75, -174468.59, 0.00, 0.00, 0.00
142, -17989.44, 27210.65, -53718.41, -80952.38, -95912.13, -116235.82, -175009.64, -183622.41, 0.00, 0.00, 0.00
143, -23577.94, 26637.65, -59344.82, -86424.52, -101556.17, -121743.02, -180644.58, -187500.02, 0.01, -0.03, 1.02
144, -15572.30, 23305.29, -51276.82, -78520.85, -93460.77, -113839.04, -172420.20, -181169.72, 0.00, 0.00, 0.00
145, -8311.21, 23532.09, -43962.01, -71404.84, -86156.07, -106715.20, -165154.31, -174021.67, 0.00, 0.00, 0.00
146, -16159.35, 26887.87, -51871.40, -79162.63, -94129.02, -114504.34, -173164.03, -181917.75, 0.00, 0.00, 0.00
147, -23551.00, 27006.56, -59315.92, -86416.91, -101600.30, -121796.53, -180649.72, -187500.02, 0.00, 0.00, 0.00
148, -17572.58, 23805.97, -53289.84, -80504.12, -95552.54, -115888.12, -174455.50, -183069.31, 0.00, 0.00, 0.00
149, -8429.45, 23075.52, -44077.95, -71527.46, -86341.45, -106898.82, -165257.95, -174121.14, 0.00, 0.00, 0.00
150, -14290.90, 26449.02, -49986.57, -77336.81, -92312.39, -112733.19, -171268.02, -180116.88, 0.00, 0.00, 0.00
151, -23095.99, 27272.21, -58858.80, -85991.12, -101217.91, -121425.27, -180203.88, -187500.02, 0.00, 0.00, 0.00
152, -19403.48, 24389.87, -55135.31, -82326.59, -97477.52, -117770.35, -176337.02, -184754.38, 0.01, -0.04, 1.02
153, -9060.59, 22770.93, -44714.86, -72160.28, -87045.65, -107590.38, -165891.95, -174746.00, 0.00, 0.00, 0.00
154, -12478.60, 25920.20, -48162.80, -75568.16, -90549.10, -111017.45, -169439.78, -178322.30, 0.00, 0.00, 0.00
155, -22242.85, 27437.41, -58003.91, -85175.66, -100432.35, -120663.88, -179357.19, -187314.52, 0.00, 0.00, 0.00
156, -21013.81, 25013.86, -56766.41, -83935.27, -99182.71, -119440.61, -178002.38, -186192.59, 0.00, 0.00, 0.00
157, -10217.29, 22637.11, -45891.19, -73312.20, -88284.02, -108802.08, -167058.11, -175909.77, 0.00, 0.00, 0.00
158, -10905.91, 25327.63, -46590.51, -74034.72, -89027.94, -109536.11, -167850.73, -176743.81, 0.00, 0.00, 0.00
159, -21080.00, 27478.32, -56845.83, -84054.65, -99332.65, -119596.63, -178191.47, -186352.52, 0.00, 0.00, 0.00
160, -22291.37, 25609.60, -58064.29, -85216.02, -100548.72, -120782.97, -179332.75, -187282.95, 0.00, 0.00, 0.00
161, -11787.62, 22689.17, -47482.34, -74873.40, -89941.43, -110428.05, -168637.33, -177485.56, 0.00, 0.00, 0.00
162, -9603.92, 24698.36, -45287.20, -72769.03, -87781.60, -108328.04, -166528.84, -175414.67, 0.01, -0.04, 1.02
163, -19584.02, 27386.00, -55347.19, -82607.80, -97897.24, -118205.56, -176680.13, -185074.88, 0.00, 0.00, 0.00
164, -23117.65, 26160.32, -58904.55, -86054.73, -101460.96, -121684.37, -180210.17, -187500.02, 0.00, 0.00, 0.00
165, -13609.02, 22918.99, -49323.08, -76680.80, -91851.45, -112303.36, -170490.97, -179289.39, 0.00, 0.00, 0.00
166, -8705.20, 24081.39, -44383.88, -71893.47, -86936.19, -107513.50, -165624.00, -174479.14, 0.00, 0.00, 0.00
167, -17896.17, 27186.43, -53648.50, -80964.97, -96260.47, -116620.54, -174984.22, -183564.00, 0.00, 0.00, 0.00
168, -23511.33, 26629.38, -59304.68, -86467.07, -101931.41, -122154.45, -180650.61, -187500.02, 0.00, 0.00, 0.00
169, -15569.44, 23305.78, -51303.53, -78627.49, -93901.48, -114312.23, -172482.48, -181200.92, 0.00, 0.00, 0.00
170, -8274.88, 23514.50, -43956.31, -71479.00, -86563.45, -107154.75, -165178.63, -174022.16, 0.00, 0.00, 0.00
171, -16041.00, 26874.31, -51783.09, -79155.03, -94454.13, -114861.12, -173104.69, -181837.02, 0.00, 0.00, 0.00
172, -23465.06, 27007.95, -59261.25, -86440.61, -101958.80, -122184.91, -180625.61, -187500.02, 0.01, -0.03, 1.01
173, -17541.51, 23815.58, -53290.89, -80581.59, -95965.06, -116330.45, -174486.97, -183072.00, 0.00, 0.00, 0.00
174, -8391.20, 23066.64, -44073.66, -71598.76, -86745.46, -107333.45, -165280.84, -174115.55, 0.00, 0.00, 0.00
175, -14176.06, 26436.99, -49905.63, -77332.90, -92636.60, -113091.76, -171212.28, -180033.50, 0.00, 0.00, 0.00
176, -23007.68, 27278.47, -58803.01, -86013.96, -101569.09, -121812.40, -180175.33, -187500.02, 0.00, 0.00, 0.00
177, -19389.38, 24376.86, -55158.36, -82423.89, -97906.80, -118233.48, -176387.33, -184770.47, 0.00, 0.00, 0.00
178, -9038.31, 22745.07, -44732.14, -72249.93, -87468.52, -108044.59, -165936.31, -174765.98, 0.00, 0.00, 0.00
179, -12369.14, 25905.92, -48091.74, -75570.80, -90883.66, -111384.30, -169395.69, -178256.42, 0.00, 0.00, 0.00
180, -22136.38, 27433.23, -57934.13, -85181.51, -100771.48, -121035.81, -179318.86, -187252.45, 0.00, 0.00, 0.00
181, -20943.61, 25007.80, -56729.35, -83975.44, -99558.94, -119849.00, -177997.81, -186164.19, 0.00, 0.00, 0.00
182, -10153.86, 22620.39, -45857.93, -73358.22, -88670.09, -109219.09, -167053.22, -175893.30, 0.02, -0.03, 1.02
183, -10724.50, 25300.83, -46434.38, -73962.66, -89295.59, -109837.90, -167726.30, -176607.08, 0.00, 0.00, 0.00
184, -20889.07, 27479.14, -56679.02, -83973.13, -99591.41, -119890.66, -178059.09, -186235.02, 0.00, 0.00, 0.00
185, -22127.64, 25589.01, -57925.13, -85160.34, -100837.09, -121104.25, -179237.34, -187202.20, 0.00, 0.00, 0.00
186, -11643.27, 22664.47, -47360.95, -74832.84, -90247.49, -110764.80, -168564.20, -177387.97, 0.00, 0.00, 0.00
187, -9400.16, 24655.05, -45104.90, -72668.58, -88025.77, -108603.21, -166392.95, -175250.75, 0.00, 0.00, 0.00
188, -19393.31, 27388.29, -55178.72, -82520.07, -98155.67, -118494.88, -176557.34, -184941.97, 0.00, 0.00, 0.00
189, -22994.74, 26170.20, -58806.84, -86034.01, -101787.54, -122040.92, -180154.47, -187500.02, 0.00, 0.00, 0.00
190, -13479.87, 22915.90, -49220.24, -76653.70, -92170.50, -112652.14, -170427.38, -179210.89, 0.00, 0.00, 0.00
191, -8525.00, 24055.28, -44232.09, -71817.70, -87204.32, -107811.00, -165508.34, -174346.89, 0.01, -0.03, 1.02
192, -17753.23, 27175.81, -53534.57, -80926.61, -96566.44, -116954.47, -174906.73, -183464.44, 0.00, 0.00, 0.00
193, -23458.51, 26644.60, -59281.54, -86517.03, -102329.10, -122579.11, -180665.92, -187500.02, 0.00, 0.00, 0.00
194, -15481.98, 23302.97, -51243.85, -78642.58, -94263.83, -114703.27, -172461.67, -181156.23, 0.00, 0.00, 0.00
195, -8092.99, 23494.90, -43801.64, -71399.88, -86829.22, -107452.25, -165062.17, -173893.70, 0.00, 0.00, 0.00
196, -15910.69, 26856.13, -51683.07, -79127.23, -94771.75, -115210.84, -173041.56, -181751.92, 0.00, 0.00, 0.00
197, -23453.55, 27022.95, -59282.08, -86532.14, -102397.20, -122654.10, -180685.28, -187500.02, 0.00, 0.00, 0.00
198, -17489.32, 23826.65, -53271.56, -80634.79, -96362.32, -116760.14, -174499.33, -183048.64, 0.00, 0.00, 0.00
199, -8229.71, 23055.60, -43942.16, -71543.59, -87030.00, -107654.96, -165176.13, -174013.55, 0.00, 0.00, 0.00
200, -14082.09, 26434.69, -49842.06, -77343.41, -92989.24, -113478.98, -171175.73, -179989.22, 0.00, 0.00, 0.00
201, -23038.41, 27299.44, -58866.87, -86147.11, -102047.53, -122322.82, -180267.59, -187500.02, 0.01, -0.03, 1.02
202, -19429.57, 24409.65, -55230.42, -82566.45, -98392.55, -118751.66, -176472.58, -184802.92, 0.00, 0.00, 0.00
203, -8932.87, 22733.27, -44655.83, -72250.02, -87803.82, -108419.28, -165865.56, -174719.06, 0.00, 0.00, 0.00
204, -12308.05, 25908.15, -48059.82, -75616.02, -91261.72, -111803.82, -169371.75, -178248.16, 0.00, 0.00, 0.00
205, -22200.98, 27456.19, -58029.53, -85350.49, -101273.45, -121578.87, -179423.97, -187268.19, 0.00, 0.00, 0.00
206, -21019.63, 25015.80, -56837.78, -84153.96, -100069.49, -120404.73, -178103.03, -186197.25, 0.00, 0.00, 0.00
207, -10067.49, 22603.87, -45802.05, -73375.45, -89012.96, -109613.58, -166985.67, -175857.80, 0.00, 0.00, 0.00
208, -10633.15, 25294.39, -46374.08, -73977.25, -89632.37, -110226.48, -167656.72, -176563.22, 0.00, 0.00, 0.00
209, -20938.17, 27476.55, -56759.19, -84126.58, -100068.13, -120416.40, -178131.81, -186250.86, 0.00, 0.00, 0.00
210, -22232.34, 25620.35, -58059.93, -85368.38, -101365.83, -121679.92, -179354.09, -187233.83, 0.00, 0.00, 0.00
211, -11600.49, 22659.26, -47347.57, -74896.78, -90627.63, -111195.21, -168521.08, -177383.30, 0.01, -0.04, 1.02
212, -9295.15, 24647.74, -45029.67, -72671.04, -88343.03, -108973.45, -166288.69, -175190.95, 0.00, 0.00, 0.00
213, -19410.86, 27398.48, -55223.38, -82641.64, -98592.70, -118983.07, -176576.50, -184951.42, 0.00, 0.00, 0.00
214, -23052.67, 26172.64, -58890.18, -86195.95, -102263.97, -122565.98, -180207.45, -187500.02, 0.00, 0.00, 0.00
215, -13435.57, 22915.75, -49201.30, -76714.47, -92544.18, -113076.58, -170362.91, -179196.28, 0.00, 0.00, 0.00
216, -8369.74, 24027.61, -44102.65, -71770.47, -87466.09, -108127.07, -165332.77, -174234.75, 0.00, 0.00, 0.00
217, -17641.79, 27189.76, -53451.20, -80925.88, -96875.34, -117315.41, -174776.86, -183384.81, 0.00, 0.00, 0.00
218, -23440.77, 26652.40, -59294.35, -86608.24, -102732.99, -123030.97, -180630.00, -187500.02, 0.00, 0.00, 0.00
219, -15454.42, 23316.65, -51247.39, -78725.48, -94658.30, -115145.27, -172417.31, -181160.19, 0.00, 0.00, 0.00
220, -8007.04, 23484.17, -43744.26, -71427.37, -87166.23, -107838.54, -164961.67, -173845.41, 0.02, -0.03, 1.02
221, -15842.18, 26868.65, -51641.38, -79172.89, -95126.90, -115615.38, -172960.05, -181715.78, 0.00, 0.00, 0.00
222, -23427.73, 27037.63, -59282.14, -86619.42, -102793.41, -123099.91, -180644.58, -187500.02, 0.00, 0.00, 0.00
223, -17501.86, 23842.13, -53311.12, -80761.41, -96797.89, -117243.63, -174498.98, -183080.50, 0.00, 0.00, 0.00
224, -8154.14, 23022.27, -43895.43, -71583.80, -87379.52, -108051.97, -165091.61, -173977.36, 0.00, 0.00, 0.00
225, -13932.71, 26403.47, -49722.15, -77311.22, -93266.98, -113804.04, -171020.95, -179881.30, 0.00, 0.00, 0.00
226, -22927.79, 27296.71, -58787.48, -86154.30, -102366.54, -122686.76, -180152.39, -187500.02, 0.00, 0.00, 0.00
227, -19317.32, 24412.46, -55148.93, -82570.16, -98709.81, -119116.13, -176357.16, -184744.52, 0.00, 0.00, 0.00
228, -8799.86, 22731.43, -44553.64, -72231.60, -88101.55, -108763.14, -165731.16, -174628.08, 0.00, 0.00, 0.00
229, -12096.36, 25867.70, -47878.87, -75520.53, -91480.93, -112070.30, -169159.45, -178080.25, 0.00, 0.00, 0.00
230, -22040.76, 27439.47, -57898.46, -85303.15, -101543.93, -121894.07, -179262.03, -187176.86, 0.01, -0.03, 1.02
231, -20947.23, 25045.22, -56791.69, -84191.55, -100426.05, -120801.16, -178035.91, -186175.86, 0.00, 0.00, 0.00
232, -10002.18, 22610.15, -45766.09, -73421.99, -89376.55, -110015.33, -166928.72, -175831.02, 0.00, 0.00, 0.00
233, -10522.84, 25285.77, -46296.25, -73981.97, -89952.45, -110583.40, -167556.94, -176494.00, 0.00, 0.00, 0.00
234, -20849.68, 27487.46, -56705.01, -84154.78, -100410.60, -120794.26, -178054.70, -186202.31, 0.00, 0.00, 0.00
235, -22221.99, 25643.51, -58083.93, -85472.71, -101787.83, -122135.72, -179356.11, -187244.16, 0.00, 0.00, 0.00
236, -11612.45, 22677.16, -47393.18, -75020.84, -91070.37, -111673.47, -168544.13, -177434.75, 0.00, 0.00, 0.00
237, -9230.17, 24648.77, -44994.37, -72717.24, -88706.38, -109374.95, -166232.08, -175168.25, 0.00, 0.00, 0.00
238, -19340.94, 27386.21, -55182.99, -82682.23, -98952.27, -119379.45, -176515.81, -184915.47, 0.00, 0.00, 0.00
239, -23040.85, 26186.05, -58908.40, -86292.53, -102685.12, -123020.45, -180205.84, -187500.02, 0.00, 0.00, 0.00
240, -13460.29, 22925.09, -49254.13, -76848.47, -93003.21, -113567.63, -170398.63, -179262.33, 0.01, -0.03, 1.02
241, -8322.58, 24023.41, -44079.85, -71831.55, -87853.02, -108547.47, -165295.84, -174234.61, 0.00, 0.00, 0.00
242, -17579.00, 27184.28, -53410.92, -80968.99, -97245.77, -117720.98, -174724.50, -183361.91, 0.00, 0.00, 0.00
243, -23431.98, 26682.93, -59307.49, -86704.07, -103157.79, -123490.21, -180632.20, -187500.02, 0.00, 0.00, 0.00
244, -15515.49, 23329.74, -51330.33, -78888.38, -95152.70, -115673.23, -172481.91, -181255.08, 0.00, 0.00, 0.00
245, -7984.18, 23466.98, -43743.82, -71507.92, -87577.38, -108285.19, -164938.45, -173873.70, 0.00, 0.00, 0.00
246, -15778.30, 26864.81, -51601.75, -79213.30, -95498.98, -116022.78, -172897.88, -181697.75, 0.00, 0.00, 0.00
247, -23401.07, 27049.50, -59282.66, -86696.53, -103206.25, -123543.77, -180622.67, -187500.02, 0.00, 0.00, 0.00
248, -17553.14, 23850.25, -53387.65, -80913.78, -97288.52, -117763.54, -174554.41, -183161.61, 0.00, 0.00, 0.00
249, -8156.40, 23021.83, -43918.65, -71687.20, -87817.97, -108521.45, -165094.52, -174030.56, 0.00, 0.00, 0.00
250, -13844.65, 26405.81, -49651.43, -77325.05, -93614.00, -114183.70, -170931.77, -179843.00, 0.02, -0.03, 1.03
251, -22864.02, 27299.17, -58737.54, -86188.03, -102736.57, -123087.61, -180086.44, -187500.02, 0.00, 0.00, 0.00
252, -19353.50, 24422.45, -55196.09, -82698.68, -99177.39, -119610.48, -176397.53, -184805.31, 0.00, 0.00, 0.00
253, -8851.60, 22726.92, -44615.00, -72373.09, -88581.68, -109270.68, -165785.09, -174721.02, 0.00, 0.00, 0.00
254, -12022.24, 25866.64, -47812.04, -75535.95, -91833.26, -112453.61, -169085.22, -178046.55, 0.00, 0.00, 0.00
255, -21935.62, 27446.96, -57802.59, -85288.94, -101865.84, -122248.91, -179158.70, -187121.28, 0.00, 0.00, 0.00
0, -20957.02, 25054.38, -56814.78, -84291.82, -100866.96, -121271.55, -178055.52, -186223.38, 0.00, 0.00, 0.00
1, -10134.64, 22631.54, -45910.77, -73641.73, -89941.59, -110606.46, -167079.17, -176011.52, 0.00, 0.00, 0.00
2, -10482.39, 25268.65, -46263.32, -74028.77, -90341.32, -111003.09, -167531.28, -176501.27, 0.00, 0.00, 0.00
3, -20577.73, 27452.03, -56434.89, -83970.27, -100566.62, -120983.84, -177791.38, -186073.73, 0.01, -0.03, 1.02
4, -22109.67, 25675.96, -57975.39, -85447.63, -102108.11, -122485.21, -179272.88, -187278.36, 0.00, 0.00, 0.00
5, -11925.08, 22746.97, -47711.85, -75413.22, -91819.33, -112440.63, -168903.70, -177807.20, 0.00, 0.00, 0.00
6, -9370.28, 24640.47, -45137.16, -72937.79, -89279.44, -109968.74, -166415.30, -175355.22, 0.00, 0.00, 0.00
7, -19072.56, 27353.62, -54914.66, -82503.13, -99115.50, -119569.98, -176285.30, -184779.58, 0.00, 0.00, 0.00
8, -22879.67, 26206.99, -58747.73, -86223.21, -102957.43, -123317.27, -180099.55, -187500.02, 0.00, 0.00, 0.00
9, -13799.54, 22992.50, -49598.05, -77271.50, -93780.32, -114357.24, -170809.61, -179658.88, 0.00, 0.00, 0.00
10, -8603.70, 24047.64, -44365.35, -72195.71, -88568.92, -109277.32, -165645.52, -174556.05, 0.00, 0.00, 0.00
11, -17386.79, 27141.86, -53218.92, -80867.58, -97483.29, -117984.88, -174593.36, -183268.67, 0.00, 0.00, 0.00
12, -23198.45, 26664.94, -59071.93, -86562.02, -103353.37, -123714.94, -180466.19, -187500.02, 0.00, 0.00, 0.00
13, -15757.58, 23401.11, -51573.09, -79214.96, -95825.97, -116366.24, -172818.30, -181556.23, 0.02, -0.03, 1.02
14, -8285.32, 23487.53, -44047.84, -71891.27, -88307.36, -109033.75, -165335.58, -174204.48, 0.00, 0.00, 0.00
15, -15546.20, 26808.53, -51369.47, -79072.13, -95689.09, -116243.28, -172754.13, -181540.86, 0.00, 0.00, 0.00
16, -23048.07, 27015.57, -58927.33, -86437.81, -103274.09, -123645.48, -180361.73, -187500.02, 0.00, 0.00, 0.00
17, -17617.46, 23893.97, -53452.50, -81064.03, -97776.63, -118276.29, -174732.70, -183324.27, 0.00, 0.00, 0.00
18, -8457.36, 23071.07, -44223.42, -72068.64, -88544.58, -109268.00, -165511.83, -174367.38, 0.00, 0.00, 0.00
19, -13687.11, 26350.22, -49496.44, -77255.02, -93878.04, -114479.53, -170885.20, -179744.56, 0.00, 0.00, 0.00
20, -22494.88, 27251.83, -58372.72, -85913.11, -102789.01, -123178.98, -179830.00, -187500.02, 0.00, 0.00, 0.00
21, -19370.00, 24461.03, -55220.07, -82806.51, -99620.80, -120083.91, -176549.41, -184938.08, 0.00, 0.00, 0.00
22, -9198.50, 22779.44, -44971.13, -72805.80, -89359.19, -110067.61, -166271.77, -175108.09, 0.00, 0.00, 0.00
23, -11981.52, 25824.96, -47778.95, -75587.18, -92219.23, -112865.33, -169179.44, -178050.89, 0.02, -0.03, 1.01
24, -21595.67, 27395.59, -57466.22, -85048.81, -101950.35, -122366.05, -178948.89, -186968.33, 0.00, 0.00, 0.00
25, -20887.53, 25086.70, -56750.38, -84323.23, -101224.90, -121656.31, -178136.27, -186290.25, 0.00, 0.00, 0.00
26, -10427.89, 22677.72, -46213.30, -74029.20, -90664.35, -111348.45, -167529.00, -176346.41, 0.00, 0.00, 0.00
27, -10501.39, 25239.79, -46290.86, -74141.94, -90783.13, -111473.20, -167700.13, -176552.75, 0.00, 0.00, 0.00
28, -20377.10, 27424.94, -56242.29, -83865.24, -100783.54, -121237.04, -177737.80, -185950.69, 0.00, 0.00, 0.00
29, -22039.20, 25671.56, -57913.86, -85469.40, -102455.52, -122865.21, -179349.41, -187275.14, 0.00, 0.00, 0.00
30, -12017.59, 22738.83, -47816.21, -75597.15, -92332.77, -112982.97, -169138.28, -177933.45, 0.00, 0.00, 0.00
31, -9304.94, 24599.21, -45086.11, -72971.27, -89636.80, -110358.72, -166494.30, -175321.44, 0.00, 0.00, 0.00
32, -18842.16, 27324.13, -54699.23, -82376.44, -99306.09, -119798.38, -176199.88, -184623.45, 0.00, 0.00, 0.00
33, -22733.67, 26195.89, -58618.77, -86175.85, -103230.77, -123629.41, -180098.08, -187500.02, 0.02, -0.03, 1.02
34, -13812.39, 23008.04, -49628.11, -77376.62, -94212.27, -114826.59, -170966.63, -179710.91, 0.00, 0.00, 0.00
35, -8532.20, 24008.41, -44310.19, -72215.96, -88914.84, -109663.17, -165716.47, -174515.17, 0.00, 0.00, 0.00
36, -17150.09, 27105.24, -52996.63, -80724.02, -97661.49, -118203.84, -174498.05, -183091.72, 0.00, 0.00, 0.00
37, -23024.24, 26652.15, -58914.26, -86482.07, -103596.78, -123994.48, -180437.02, -187500.02, 0.00, 0.00, 0.00
38, -15750.94, 23402.59, -51585.37, -79301.33, -96243.84, -116813.14, -172950.50, -181603.95, 0.00, 0.00, 0.00
39, -8260.69, 23459.72, -44041.05, -71958.63, -88707.27, -109460.89, -165444.52, -174218.50, 0.00, 0.00, 0.00
40, -15342.15, 26764.54, -51181.87, -78962.61, -95906.30, -116494.34, -172682.52, -181390.08, 0.00, 0.00, 0.00
41, -22867.58, 27003.97, -58764.77, -86353.19, -103514.05, -123921.20, -180314.73, -187500.02, 0.00, 0.00, 0.00
42, -17621.73, 23922.83, -53477.73, -81165.80, -98206.16, -118737.13, -174873.77, -183381.78, 0.02, -0.03, 1.02
43, -8503.09, 23072.90, -44291.95, -72213.43, -89017.97, -109771.05, -165697.66, -174453.22, 0.00, 0.00, 0.00
44, -13575.64, 26328.77, -49408.39, -77246.51, -94191.81, -114825.96, -170913.70, -179680.84, 0.00, 0.00, 0.00
45, -22348.26, 27254.60, -58248.73, -85872.98, -103065.81, -123489.52, -179823.88, -187500.02, 0.00, 0.00, 0.00
46, -19417.94, 24503.55, -55293.77, -82958.02, -100094.62, -120588.48, -176734.77, -185032.88, 0.00, 0.00, 0.00
47, -9312.00, 22785.81, -45113.02, -73019.73, -89898.55, -110638.83, -166524.48, -175263.69, 0.00, 0.00, 0.00
48, -11926.80, 25816.06, -47751.19, -75632.80, -92587.96, -113270.45, -169262.36, -178034.25, 0.00, 0.00, 0.00
49, -21455.17, 27384.26, -57352.72, -85006.74, -102231.98, -122686.20, -178946.05, -186897.06, 0.00, 0.00, 0.00
50, -20853.60, 25093.77, -56745.89, -84383.89, -101614.89, -122082.95, -178241.39, -186313.00, 0.00, 0.00, 0.00
51, -10516.25, 22676.31, -46330.05, -74208.88, -91178.40, -111894.48, -167749.56, -176474.22, 0.00, 0.00, 0.00
52, -10425.03, 25193.30, -46240.84, -74160.18, -91132.51, -111855.44, -167755.27, -176515.28, 0.02, -0.03, 1.02
53, -20177.86, 27393.43, -56069.77, -83766.24, -101010.21, -121500.21, -177671.47, -185838.91, 0.00, 0.00, 0.00
54, -21922.61, 25672.23, -57823.89, -85451.66, -102765.12, -123213.98, -179367.95, -187254.95, 0.00, 0.00, 0.00
55, -12080.65, 22774.77, -47905.35, -75754.95, -92824.04, -113508.48, -169337.97, -178044.64, 0.00, 0.00, 0.00
56, -9305.50, 24601.38, -45110.73, -73064.19, -90064.54, -110820.15, -166628.06, -175365.83, 0.00, 0.00, 0.00
57, -18684.16, 27306.77, -54562.26, -82310.90, -99572.68, -120103.27, -176172.23, -184542.95, 0.00, 0.00, 0.00
58, -22616.63, 26203.13, -58521.18, -86152.09, -103539.71, -123974.70, -180119.73, -187500.02, 0.00, 0.00, 0.00
59, -13918.97, 23022.68, -49757.69, -77574.84, -94747.99, -115393.54, -171211.72, -179876.84, 0.00, 0.00, 0.00
60, -8597.96, 23988.99, -44400.44, -72371.91, -89408.25, -110189.88, -165917.39, -174629.75, 0.00, 0.00, 0.00
61, -17003.57, 27081.22, -52870.97, -80668.76, -97938.21, -118519.72, -174485.31, -183016.53, 0.00, 0.00, 0.00
62, -22852.85, 26641.04, -58760.84, -86400.17, -103846.45, -124284.32, -180400.92, -187500.02, 0.01, -0.03, 1.01
63, -15771.52, 23417.16, -51623.97, -79406.60, -96683.23, -117289.73, -173107.64, -181690.78, 0.00, 0.00, 0.00
64, -8325.89, 23449.77, -44122.01, -72105.36, -89188.30, -109981.17, -165645.28, -174335.70, 0.00, 0.00, 0.00
65, -15200.68, 26738.45, -51051.63, -78904.70, -96177.41, -116809.56, -172672.06, -181313.97, 0.00, 0.00, 0.00
66, -22685.32, 27004.44, -58591.61, -86254.28, -103744.86, -124194.70, -180264.75, -187500.02, 0.00, 0.00, 0.00
67, -17633.94, 23938.23, -53498.03, -81253.33, -98631.49, -119198.88, -175027.34, -183467.11, 0.00, 0.00, 0.00
68, -8598.36, 23054.21, -44393.94, -72377.13, -89522.89, -110311.80, -165931.48, -174592.83, 0.00, 0.00, 0.00
69, -13486.95, 26302.50, -49322.07, -77224.47, -94506.84, -115183.50, -170958.14, -179635.23, 0.00, 0.00, 0.00
70, -22179.17, 27240.61, -58079.29, -85767.80, -103298.05, -123765.27, -179787.77, -187500.02, 0.00, 0.00, 0.00
71, -19375.50, 24519.06, -55252.75, -82976.36, -100454.93, -120987.40, -176831.58, -185061.42, 0.01, -0.03, 1.02
72, -9373.72, 22776.79, -45178.33, -73142.52, -90365.13, -111141.07, -166719.80, -175372.20, 0.00, 0.00, 0.00
73, -11822.71, 25770.64, -47649.92, -75594.02, -92885.13, -113609.71, -169288.47, -177979.25, 0.00, 0.00, 0.00
74, -21265.20, 27379.34, -57166.33, -84886.47, -102443.45, -122941.14, -178888.20, -186806.75, 0.00, 0.00, 0.00
75, -20780.95, 25105.61, -56678.57, -84380.09, -101947.84, -122453.71, -178302.92, -186320.77, 0.00, 0.00, 0.00
76, -10563.86, 22684.49, -46386.77, -74325.05, -91635.58, -112385.15, -167933.88, -176575.73, 0.00, 0.00, 0.00
77, -10393.27, 25184.78, -46219.52, -74201.48, -91510.52, -112269.27, -167859.84, -176537.02, 0.00, 0.00, 0.00
78, -20055.10, 27389.74, -55956.09, -83719.75, -101297.14, -121823.62, -177687.05, -185785.84, 0.00, 0.00, 0.00
79, -21899.05, 25701.42, -57811.91, -85504.63, -103152.49, -123634.52, -179485.53, -187281.38, 0.00, 0.00, 0.00
80, -12163.04, 22768.71, -48001.75, -75911.62, -93318.33, -114033.95, -169553.42, -178179.97, 0.00, 0.00, 0.00
81, -9309.52, 24573.33, -45129.22, -73143.76, -90478.70, -111267.77, -166762.38, -175420.78, 0.02, -0.04, 1.02
82, -18624.14, 27278.00, -54517.31, -82328.53, -99921.73, -120485.98, -176243.52, -184526.63, 0.00, 0.00, 0.00
83, -22617.30, 26226.91, -58538.61, -86230.26, -103952.41, -124415.26, -180249.95, -187500.02, 0.00, 0.00, 0.00
84, -13998.52, 23042.95, -49852.59, -77729.33, -95240.69, -115907.70, -171406.72, -179991.78, 0.00, 0.00, 0.00
85, -8622.10, 23977.92, -44437.32, -72471.93, -89843.46, -110647.19, -166053.47, -174696.33, 0.00, 0.00, 0.00
86, -16991.79, 27063.69, -52873.27, -80733.70, -98337.84, -118944.45, -174586.27, -183035.80, 0.00, 0.00, 0.00
87, -22890.35, 26657.07, -58814.57, -86515.15, -104296.88, -124761.38, -180551.06, -187500.02, 0.00, 0.00, 0.00
88, -15893.18, 23445.88, -51763.87, -79606.72, -97221.05, -117852.52, -173331.20, -181832.06, 0.00, 0.00, 0.00
89, -8367.84, 23449.28, -44182.85, -72227.24, -89646.38, -110462.63, -165786.95, -174417.63, 0.00, 0.00, 0.00
90, -15223.86, 26717.93, -51093.61, -79009.28, -96617.02, -117270.26, -172797.28, -181365.16, 0.00, 0.00, 0.00
91, -22729.71, 26982.15, -58655.49, -86380.13, -104204.90, -124676.17, -180408.92, -187500.02, 0.01, -0.04, 1.01
92, -17737.99, 23951.41, -53624.18, -81437.66, -99152.83, -119741.22, -175207.09, -183566.25, 0.00, 0.00, 0.00
93, -8617.87, 23034.97, -44435.29, -72478.45, -89959.45, -110770.68, -166018.94, -174648.61, 0.00, 0.00, 0.00
94, -13458.03, 26280.02, -49315.93, -77279.90, -94895.94, -115594.52, -170999.13, -179639.88, 0.00, 0.00, 0.00
95, -22169.09, 27241.12, -58092.99, -85843.52, -103708.42, -124195.74, -179848.30, -187500.02, 0.00, 0.00, 0.00
96, -19424.45, 24522.39, -55326.85, -83113.48, -100926.15, -121478.27, -176938.91, -185112.64, 0.00, 0.00, 0.00
97, -9368.38, 22760.89, -45195.36, -73224.24, -90780.45, -111577.13, -166763.83, -175405.02, 0.00, 0.00, 0.00
98, -11777.80, 25752.03, -47626.36, -75635.08, -93262.54, -114006.79, -169294.34, -177972.25, 0.00, 0.00, 0.00
99, -21235.25, 27347.18, -57157.34, -84939.95, -102836.59, -123352.66, -178910.06, -186783.84, 0.00, 0.00, 0.00
100, -20798.43, 25102.10, -56715.11, -84478.02, -102385.38, -122910.65, -178358.89, -186337.03, 0.00, 0.00, 0.00
101, -10527.76, 22674.35, -46366.88, -74368.19, -92016.36, -112787.57, -167922.22, -176570.30, 0.02, -0.04, 1.02
102, -10273.55, 25150.96, -46113.77, -74160.34, -91806.81, -112588.80, -167763.53, -176443.75, 0.00, 0.00, 0.00
103, -19963.57, 27361.71, -55877.30, -83705.09, -101623.79, -122170.79, -177620.97, -185716.14, 0.00, 0.00, 0.00
104, -21869.93, 25701.02, -57794.48, -85549.31, -103542.40, -124041.07, -179482.11, -187258.95, 0.00, 0.00, 0.00
105, -12087.15, 22758.97, -47938.14, -75911.08, -93658.70, -114392.91, -169504.88, -178129.83, 0.00, 0.00, 0.00
106, -9159.68, 24534.50, -44990.51, -73069.95, -90743.43, -111553.24, -166642.23, -175296.17, 0.00, 0.00, 0.00
107, -18513.48, 27259.87, -54417.13, -82292.75, -100226.67, -120810.88, -176162.98, -184438.98, 0.00, 0.00, 0.00
108, -22576.92, 26219.09, -58509.64, -86263.05, -104326.52, -124810.30, -180239.56, -187500.02, 0.00, 0.00, 0.00
109, -13899.14, 23019.12, -49764.19, -77705.21, -95554.84, -116244.16, -171336.05, -179920.39, 0.00, 0.00, 0.00
110, -8426.25, 23943.86, -44248.05, -72353.42, -90060.92, -110887.36, -165884.61, -174531.33, 0.02, -0.04, 1.01
111, -16843.51, 27045.41, -52732.28, -80664.11, -98606.64, -119233.01, -174466.98, -182916.86, 0.00, 0.00, 0.00
112, -22838.70, 26659.66, -58771.72, -86540.59, -104663.52, -125146.12, -180528.81, -187500.02, 0.00, 0.00, 0.00
113, -15773.49, 23425.86, -51651.93, -79563.40, -97518.24, -118168.91, -173238.22, -181739.44, 0.00, 0.00, 0.00
114, -8134.94, 23420.02, -43959.78, -72074.96, -89831.03, -110668.65, -165579.34, -174219.48, 0.00, 0.00, 0.00
115, -15049.36, 26696.56, -50934.13, -78915.83, -96862.31, -117536.63, -172651.75, -181225.05, 0.00, 0.00, 0.00
116, -22684.47, 26999.19, -58627.68, -86412.98, -104580.75, -125071.41, -180399.67, -187500.02, 0.00, 0.00, 0.00
117, -17642.14, 23940.73, -53545.01, -81420.74, -99475.59, -120085.41, -175141.92, -183491.80, 0.00, 0.00, 0.00
118, -8378.48, 22994.98, -44213.89, -72322.20, -90138.86, -110973.48, -165804.11, -174449.84, 0.00, 0.00, 0.00
119, -13265.22, 26258.96, -49141.70, -77169.98, -95124.30, -115844.82, -170833.17, -179485.48, 0.00, 0.00, 0.00
120, -22141.73, 27249.88, -58086.73, -85894.98, -104104.09, -124609.30, -179852.17, -187492.13, 0.02, -0.04, 1.02
121, -19374.47, 24524.24, -55295.53, -83138.12, -101297.01, -121866.11, -176909.25, -185062.30, 0.00, 0.00, 0.00
122, -9145.01, 22742.41, -44986.50, -73076.73, -90974.37, -111791.09, -166555.52, -175222.00, 0.00, 0.00, 0.00
123, -11584.31, 25736.94, -47447.30, -75518.85, -93486.39, -114248.19, -169117.11, -177817.70, 0.00, 0.00, 0.00
124, -21226.91, 27375.12, -57165.19, -85008.17, -103246.98, -123775.28, -178920.77, -186752.38, 0.00, 0.00, 0.00
125, -20834.87, 25131.59, -56770.66, -84591.90, -102841.69, -123375.30, -178412.09, -186338.94, 0.00, 0.00, 0.00
126, -10381.89, 22647.93, -46239.03, -74302.65, -92287.29, -113070.97, -167781.95, -176463.16, 0.00, 0.00, 0.00
127, -10107.66, 25129.86, -45965.40, -74073.97, -92056.91, -112852.32, -167603.98, -176319.77, 0.00, 0.00, 0.00
128, -19968.06, 27378.25, -55902.76, -83787.70, -102044.80, -122603.65, -177635.16, -185703.73, 0.00, 0.00, 0.00
129, -21907.26, 25719.99, -57855.07, -85667.02, -103995.84, -124507.10, -179520.39, -187248.17, 0.00, 0.00, 0.00
130, -11962.92, 22745.40, -47837.09, -75871.07, -93950.50, -114697.99, -169365.98, -178041.55, 0.02, -0.04, 1.02
131, -8944.32, 24502.72, -44797.88, -72939.71, -90943.21, -111768.24, -166410.88, -175124.50, 0.00, 0.00, 0.00
132, -18430.00, 27272.88, -54359.24, -82293.69, -100558.30, -121159.62, -176067.50, -184372.83, 0.00, 0.00, 0.00
133, -22584.54, 26243.50, -58543.82, -86355.52, -104749.34, -125250.05, -180237.22, -187500.02, 0.00, 0.00, 0.00
134, -13818.38, 23023.59, -49711.29, -77711.73, -95887.23, -116595.21, -171242.94, -179875.23, 0.00, 0.00, 0.00
135, -8249.07, 23915.23, -44102.80, -72266.92, -90297.63, -111142.52, -165694.91, -174399.95, 0.00, 0.00, 0.00
136, -16749.97, 27035.55, -52671.93, -80660.72, -98927.68, -119567.45, -174361.66, -182853.63, 0.00, 0.00, 0.00
137, -22847.84, 26673.70, -58816.13, -86639.96, -105089.61, -125577.84, -180529.13, -187500.02, 0.00, 0.00, 0.00
138, -15784.40, 23452.32, -51698.78, -79664.92, -97944.76, -118598.73, -173230.81, -181770.23, 0.00, 0.00, 0.00
139, -8048.13, 23397.76, -43906.00, -72077.84, -90156.23, -111000.16, -165471.17, -174171.05, 0.00, 0.00, 0.00
140, -14968.27, 26687.67, -50882.07, -78921.81, -97191.17, -117872.57, -172550.05, -181175.52, 0.01, -0.04, 1.02
141, -22672.18, 27006.43, -58640.52, -86484.26, -104977.34, -125473.01, -180362.61, -187500.02, 0.00, 0.00, 0.00
142, -17696.81, 23980.25, -53623.82, -81557.38, -99939.72, -120552.14, -175169.83, -183558.28, 0.00, 0.00, 0.00
143, -8377.30, 22994.74, -44237.77, -72404.80, -90546.63, -111386.00, -165777.50, -174488.47, 0.00, 0.00, 0.00
144, -13187.46, 26237.24, -49091.18, -77183.30, -95457.52, -116184.37, -170733.44, -179450.11, 0.00, 0.00, 0.00
145, -22065.02, 27248.25, -58040.26, -85914.54, -104439.55, -124953.38, -179755.77, -187456.19, 0.00, 0.00, 0.00
146, -19398.16, 24554.24, -55352.28, -83258.55, -101733.78, -122310.95, -176923.03, -185121.36, 0.00, 0.00, 0.00
147, -9203.24, 22752.87, -45081.32, -73232.65, -91445.66, -112271.45, -166607.03, -175321.38, 0.00, 0.00, 0.00
148, -11501.07, 25708.69, -47399.09, -75536.55, -93813.55, -114591.73, -169026.81, -177773.08, 0.00, 0.00, 0.00
149, -21080.94, 27342.71, -57050.28, -84961.68, -103507.84, -124055.89, -178764.86, -186679.81, 0.01, -0.03, 1.02
150, -20794.36, 25150.47, -56758.03, -84646.99, -103207.34, -123758.50, -178373.58, -186355.06, 0.00, 0.00, 0.00
151, -10469.04, 22683.98, -46353.02, -74481.69, -92780.66, -113579.02, -167884.03, -176585.09, 0.00, 0.00, 0.00
152, -10078.47, 25120.30, -45960.73, -74139.33, -92431.92, -113244.55, -167589.31, -176322.67, 0.00, 0.00, 0.00
153, -19821.66, 27346.02, -55778.89, -83736.92, -102301.88, -122879.91, -177502.14, -185630.58, 0.00, 0.00, 0.00
154, -21839.80, 25721.58, -57811.27, -85692.88, -104332.28, -124861.53, -179478.05, -187255.20, 0.00, 0.00, 0.00
155, -12080.45, 22788.03, -47979.00, -76077.80, -94471.45, -115236.96, -169514.64, -178201.67, 0.00, 0.00, 0.00
156, -8984.37, 24512.17, -44864.89, -73071.16, -91386.63, -112233.47, -166482.77, -175206.69, 0.00, 0.00, 0.00
157, -18313.25, 27230.50, -54269.65, -82273.37, -100848.63, -121470.48, -175983.02, -184326.72, 0.00, 0.00, 0.00
158, -22492.87, 26233.79, -58479.36, -86362.13, -105067.19, -125585.84, -180178.09, -187500.02, 0.00, 0.00, 0.00
159, -13933.81, 23068.36, -49854.25, -77920.32, -96414.29, -117136.46, -171394.31, -180040.36, 0.01, -0.04, 1.02
160, -8328.62, 23923.18, -44208.20, -72438.23, -90786.10, -111649.35, -165811.25, -174520.56, 0.00, 0.00, 0.00
161, -16648.67, 26999.77, -52596.87, -80656.63, -99231.88, -119898.48, -174298.47, -182817.02, 0.00, 0.00, 0.00
162, -22718.40, 26667.62, -58714.28, -86609.88, -105364.64, -125884.26, -180442.20, -187500.02, 0.00, 0.00, 0.00
163, -15861.60, 23501.29, -51802.49, -79837.99, -98429.81, -119111.73, -173370.42, -181903.56, 0.00, 0.00, 0.00
164, -8140.53, 23409.83, -44023.93, -72265.84, -90658.36, -111530.59, -165629.11, -174312.16, 0.00, 0.00, 0.00
165, -14865.07, 26646.50, -50803.41, -78918.51, -97498.17, -118211.24, -172510.22, -181133.61, 0.00, 0.00, 0.00
166, -22506.33, 26984.46, -58500.64, -86421.84, -105224.30, -125751.45, -180265.25, -187500.02, 0.00, 0.00, 0.00
167, -17678.04, 24003.89, -53632.36, -81639.90, -100336.35, -120976.33, -175233.14, -183617.55, 0.00, 0.00, 0.00
168, -8420.33, 23015.37, -44305.89, -72546.16, -91005.62, -111869.23, -165903.61, -174591.02, 0.00, 0.00, 0.00
169, -13059.05, 26199.66, -48983.06, -77150.42, -95738.89, -116494.74, -170682.19, -179383.83, 0.02, -0.04, 1.02
170, -21885.53, 27218.19, -57878.52, -85828.35, -104668.37, -125210.24, -179651.84, -187382.52, 0.00, 0.00, 0.00
171, -19339.44, 24573.53, -55313.77, -83292.59, -102086.83, -122684.92, -176952.66, -185140.30, 0.00, 0.00, 0.00
172, -9220.14, 22764.27, -45119.43, -73340.85, -91877.42, -112717.95, -166715.08, -175394.63, 0.00, 0.00, 0.00
173, -11413.63, 25685.08, -47335.00, -75543.44, -94143.80, -114935.70, -169031.73, -177745.33, 0.00, 0.00, 0.00
174, -20940.03, 27336.99, -56938.43, -84922.59, -103789.88, -124351.40, -178722.28, -186622.78, 0.00, 0.00, 0.00
175, -20733.72, 25173.03, -56729.30, -84688.25, -103572.52, -124137.20, -178416.42, -186369.75, 0.00, 0.00, 0.00
176, -10465.33, 22695.63, -46383.18, -74580.48, -93204.18, -114015.87, -167986.86, -176653.11, 0.00, 0.00, 0.00
177, -9956.72, 25072.96, -45875.59, -74124.55, -92736.13, -113566.66, -167574.69, -176273.30, 0.00, 0.00, 0.00
178, -19641.30, 27322.97, -55637.16, -83665.48, -102546.20, -123144.85, -177427.94, -185545.59, 0.01, -0.04, 1.02
179, -21690.18, 25734.88, -57700.60, -85650.25, -104606.63, -125155.70, -179432.63, -187208.42, 0.00, 0.00, 0.00
180, -11991.33, 22798.71, -47927.59, -76091.48, -94805.63, -115588.17, -169536.09, -178184.55, 0.00, 0.00, 0.00
181, -8793.60, 24460.36, -44707.80, -72982.38, -91614.09, -112478.49, -166398.56, -175078.33, 0.00, 0.00, 0.00
182, -18053.21, 27204.29, -54040.13, -82114.98, -101002.10, -121644.65, -175827.05, -184159.30, 0.00, 0.00, 0.00
183, -22278.90, 26225.72, -58297.06, -86248.61, -105266.61, -125804.33, -180074.20, -187500.02, 0.00, 0.00, 0.00
184, -13772.36, 23087.25, -49725.59, -77858.74, -96667.05, -117406.20, -171350.20, -179951.72, 0.00, 0.00, 0.00
185, -8125.46, 23890.75, -44035.64, -72333.98, -90997.19, -111876.47, -165723.03, -174375.61, 0.00, 0.00, 0.00
186, -16366.77, 26971.51, -52342.48, -80472.54, -99363.07, -120046.88, -174129.34, -182617.86, 0.00, 0.00, 0.00
187, -22504.92, 26671.60, -58525.43, -86488.84, -105563.53, -126097.83, -180340.78, -187500.02, 0.00, 0.00, 0.00
188, -15710.30, 23532.07, -51679.42, -79776.86, -98689.70, -119386.54, -173331.33, -181838.55, 0.01, -0.03, 1.02
189, -7976.53, 23396.96, -43889.93, -72192.84, -90902.46, -111791.60, -165576.52, -174214.03, 0.00, 0.00, 0.00
190, -14626.85, 26614.27, -50593.04, -78773.22, -97664.05, -118396.96, -172380.53, -180971.31, 0.00, 0.00, 0.00
191, -22326.64, 26985.80, -58349.92, -86335.55, -105448.62, -125993.23, -180192.34, -187500.02, 0.00, 0.00, 0.00
192, -17603.88, 24029.58, -53589.13, -81660.98, -100667.80, -121322.07, -175266.23, -183620.16, 0.00, 0.00, 0.00
193, -8337.45, 23017.89, -44255.38, -72561.56, -91325.91, -112205.82, -165926.81, -174569.83, 0.00, 0.00, 0.00
194, -12877.71, 26183.46, -48835.61, -77071.54, -95958.56, -116735.38, -170607.53, -179265.48, 0.00, 0.00, 0.00
195, -21728.82, 27217.70, -57755.05, -85775.24, -104912.80, -125476.54, -179603.48, -187309.09, 0.00, 0.00, 0.00
196, -19247.22, 24601.42, -55253.58, -83301.20, -102395.33, -123015.41, -176968.34, -185120.50, 0.00, 0.00, 0.00
197, -9158.90, 22789.14, -45088.94, -73377.40, -92215.07, -113078.48, -166759.08, -175399.09, 0.00, 0.00, 0.00
198, -11235.46, 25652.56, -47184.17, -75463.27, -94359.43, -115179.07, -168953.41, -177631.88, 0.01, -0.03, 1.02
199, -20761.51, 27324.16, -56782.95, -84840.60, -104003.16, -124592.73, -178640.25, -186529.03, 0.00, 0.00, 0.00
200, -20651.40, 25195.06, -56668.62, -84702.54, -103883.44, -124470.53, -178426.70, -186360.92, 0.00, 0.00, 0.00
201, -10451.99, 22728.68, -46392.65, -74663.16, -93584.70, -114416.66, -168055.67, -176708.70, 0.00, 0.00, 0.00
202, -9893.51, 25081.05, -45832.27, -74154.28, -93064.75, -113915.98, -167588.03, -176274.86, 0.00, 0.00, 0.00
203, -19549.01, 27327.67, -55563.53, -83666.63, -102844.98, -123462.45, -177410.69, -185503.64, 0.00, 0.00, 0.00
204, -21737.41, 25765.01, -57765.85, -85789.13, -105046.80, -125608.77, -179556.00, -187263.94, 0.00, 0.00, 0.00
205, -12125.91, 22841.52, -48081.04, -76318.45, -95333.80, -116125.69, -169739.95, -178375.28, 0.00, 0.00, 0.00
206, -8866.02, 24476.75, -44799.62, -73148.67, -92080.49, -112955.48, -166539.42, -175210.84, 0.00, 0.00, 0.00
207, -18060.19, 27195.10, -54067.48, -82217.89, -101404.43, -122057.51, -175905.41, -184201.86, 0.00, 0.00, 0.00
208, -22340.41, 26257.22, -58379.20, -86404.55, -105727.16, -126272.38, -180205.81, -187500.02, 0.01, -0.04, 1.01
209, -13914.94, 23134.70, -49888.51, -78093.84, -97210.02, -117953.88, -171547.64, -180141.70, 0.00, 0.00, 0.00
210, -8174.06, 23893.32, -44107.63, -72476.94, -91445.38, -112332.48, -165823.66, -174492.03, 0.00, 0.00, 0.00
211, -16310.27, 26949.34, -52308.18, -80510.76, -99705.14, -120397.47, -174121.80, -182615.33, 0.00, 0.00, 0.00
212, -22498.53, 26675.49, -58539.95, -86576.62, -105954.95, -126496.63, -180382.48, -187500.02, 0.00, 0.00, 0.00
213, -15788.87, 23537.82, -51778.20, -79948.59, -99166.22, -119868.55, -173449.00, -181960.83, 0.00, 0.00, 0.00
214, -8024.81, 23402.90, -43957.36, -72334.04, -91350.26, -112244.00, -165660.66, -174322.80, 0.00, 0.00, 0.00
215, -14579.75, 26613.57, -50568.05, -78823.60, -98018.59, -118758.88, -172371.97, -180977.69, 0.00, 0.00, 0.00
216, -22309.54, 26998.96, -58354.86, -86416.65, -105833.36, -126387.09, -180216.36, -187500.02, 0.00, 0.00, 0.00
217, -17678.31, 24060.76, -53685.67, -81829.45, -101143.12, -121805.83, -175382.48, -183720.09, 0.02, -0.04, 1.02
218, -8398.49, 23019.75, -44339.73, -72714.88, -91788.15, -112677.42, -166029.94, -174691.97, 0.00, 0.00, 0.00
219, -12842.13, 26172.53, -48823.63, -77129.85, -96325.40, -117112.95, -170616.58, -179290.53, 0.00, 0.00, 0.00
220, -21692.79, 27207.46, -57742.06, -85832.73, -105279.02, -125850.95, -179613.58, -187293.06, 0.00, 0.00, 0.00
221, -19268.46, 24621.18, -55297.41, -83417.65, -102817.95, -123445.44, -177028.42, -185170.94, 0.00, 0.00, 0.00
222, -9187.04, 22786.51, -45140.51, -73502.68, -92644.02, -113516.19, -166826.19, -175490.38, 0.00, 0.00, 0.00
223, -11138.68, 25623.73, -47112.13, -75464.60, -94663.73, -115493.29, -168896.56, -177596.78, 0.00, 0.00, 0.00
224, -20657.35, 27306.03, -56709.04, -84836.73, -104301.35, -124900.34, -178579.61, -186477.20, 0.00, 0.00, 0.00
225, -20607.32, 25191.62, -56656.69, -84756.18, -104239.05, -124836.52, -178427.53, -186364.86, 0.00, 0.00, 0.00
226, -10437.08, 22742.92, -46409.15, -74743.91, -93968.14, -114810.11, -168086.36, -176756.97, 0.00, 0.00, 0.00
227, -9768.83, 25043.50, -45739.09, -74129.54, -93338.55, -114202.37, -167509.95, -176213.09, 0.01, -0.04, 1.02
228, -19395.61, 27305.45, -55440.82, -83614.56, -103091.56, -123724.08, -177304.64, -185420.77, 0.00, 0.00, 0.00
229, -21662.13, 25776.66, -57723.04, -85816.59, -105373.43, -125950.17, -179529.70, -187250.64, 0.00, 0.00, 0.00
230, -12109.42, 22852.74, -48098.96, -76404.83, -95720.36, -116526.05, -169774.88, -178428.52, 0.00, 0.00, 0.00
231, -8771.43, 24461.90, -44736.93, -73157.46, -92387.55, -113279.11, -166495.91, -175185.45, 0.00, 0.00, 0.00
232, -17912.78, 27181.84, -53952.59, -82174.55, -101657.38, -122330.47, -175807.58, -184126.42, 0.00, 0.00, 0.00
233, -22264.50, 26247.88, -58335.59, -86430.23, -106048.54, -126615.95, -180179.23, -187500.02, 0.00, 0.00, 0.00
234, -13925.23, 23139.44, -49929.46, -78202.41, -97614.80, -118382.08, -171607.02, -180214.69, 0.00, 0.00, 0.00
235, -8122.76, 23874.93, -44085.46, -72524.37, -91785.36, -112698.52, -165819.19, -174503.55, 0.00, 0.00, 0.00
236, -16177.86, 26935.30, -52206.77, -80479.30, -99964.71, -120685.02, -174036.95, -182548.59, 0.00, 0.00, 0.00
237, -22401.32, 26665.18, -58478.73, -86583.52, -106254.02, -126821.96, -180337.58, -187500.02, 0.01, -0.03, 1.01
238, -15771.46, 23551.38, -51798.73, -80034.28, -99547.80, -120273.08, -173487.39, -182008.22, 0.00, 0.00, 0.00
239, -7963.90, 23385.53, -43931.66, -72375.64, -91685.45, -112602.66, -165652.55, -174327.55, 0.00, 0.00, 0.00
240, -14404.67, 26583.09, -50423.12, -78748.16, -98234.48, -119001.84, -172244.23, -180872.95, 0.00, 0.00, 0.00
241, -22161.78, 26986.94, -58236.82, -86363.96, -106074.76, -126652.84, -180116.50, -187500.02, 0.00, 0.00, 0.00
242, -17634.23, 24080.29, -53672.66, -81876.02, -101487.04, -122170.97, -175396.09, -183746.84, 0.00, 0.00, 0.00
243, -8364.51, 23025.11, -44332.67, -72766.34, -92137.20, -113048.95, -166051.97, -174718.75, 0.00, 0.00, 0.00
244, -12693.71, 26150.47, -48698.75, -77065.55, -96555.78, -117369.21, -170518.06, -179202.44, 0.00, 0.00, 0.00
245, -21554.50, 27193.09, -57626.44, -85777.09, -105520.30, -126119.34, -179523.80, -187232.31, 0.00, 0.00, 0.00
246, -19285.33, 24634.66, -55337.87, -83511.91, -103217.96, -123867.04, -177100.28, -185238.16, 0.00, 0.00, 0.00
247, -9220.09, 22799.02, -45197.48, -73611.47, -93061.30, -113952.14, -166907.94, -175576.44, 0.02, -0.03, 1.01
248, -11058.37, 25615.48, -47052.57, -75462.10, -94964.38, -115815.36, -168862.11, -177564.80, 0.00, 0.00, 0.00
249, -20562.44, 27300.62, -56629.04, -84817.31, -104584.13, -125205.62, -178528.20, -186431.02, 0.00, 0.00, 0.00
250, -20657.75, 25237.33, -56722.31, -84877.88, -104667.88, -125285.75, -178523.41, -186434.94, 0.00, 0.00, 0.00
251, -10543.90, 22757.49, -46533.63, -74920.54, -94453.71, -115315.57, -168240.39, -176909.14, 0.00, 0.00, 0.00
252, -9740.87, 25045.35, -45729.03, -74172.07, -93686.13, -114574.62, -167528.94, -176229.80, 0.00, 0.00, 0.00
253, -19310.92, 27280.62, -55372.13, -83599.55, -103379.63, -124039.48, -177266.42, -185383.89, 0.00, 0.00, 0.00
254, -21677.46, 25792.41, -57749.89, -85897.41, -105761.08, -126361.31, -179590.83, -187285.06, 0.00, 0.00, 0.00
255, -12221.02, 22895.70, -48219.33, -76578.21, -96205.01, -117030.84, -169921.64, -178574.81, 0.00, 0.00, 0.00
0, -8732.31, 24440.51, -44708.16, -73182.88, -92721.38, -113637.70, -166488.75, -175179.59, 0.01, -0.03, 1.02
1, -17788.46, 27150.42, -53837.57, -82115.48, -101904.98, -122606.24, -175715.27, -184048.66, 0.00, 0.00, 0.00
2, -22234.44, 26264.86, -58316.32, -86465.09, -106391.87, -126985.76, -180189.36, -187500.02, 0.00, 0.00, 0.00
3, -14020.27, 23165.19, -50038.85, -78361.23, -98086.36, -118874.40, -171750.69, -180342.92, 0.00, 0.00, 0.00
4, -8114.58, 23865.07, -44088.39, -72578.70, -92149.35, -113084.55, -165857.45, -174525.64, 0.00, 0.00, 0.00
5, -16099.45, 26913.71, -52137.30, -80462.03, -100254.52, -121000.77, -174006.06, -182501.08, 0.00, 0.00, 0.00
6, -22411.78, 26688.38, -58496.55, -86652.21, -106632.97, -127224.83, -180398.95, -187500.02, 0.00, 0.00, 0.00
7, -15926.67, 23595.73, -51961.84, -80244.34, -100071.82, -120817.41, -173685.78, -182168.23, 0.00, 0.00, 0.00
8, -7991.80, 23396.22, -43968.14, -72458.95, -92080.63, -113019.94, -165720.44, -174387.56, 0.00, 0.00, 0.00
9, -14390.95, 26568.42, -50418.58, -78791.33, -98588.27, -119377.84, -172274.56, -180882.20, 0.00, 0.00, 0.00
10, -22217.77, 26992.50, -58303.70, -86477.87, -106498.86, -127099.95, -180220.36, -187500.02, 0.01, -0.02, 1.02
11, -17754.97, 24106.06, -53803.44, -82055.22, -101976.77, -122683.06, -175552.22, -183851.52, 0.00, 0.00, 0.00
12, -8338.18, 23001.58, -44318.19, -72804.66, -92484.16, -113418.67, -166056.64, -174725.02, 0.00, 0.00, 0.00
13, -12644.14, 26131.38, -48660.17, -77081.69, -96882.76, -117718.63, -170502.20, -179174.53, 0.00, 0.00, 0.00
14, -21619.52, 27201.02, -57704.45, -85905.95, -105961.15, -126582.46, -179626.17, -187238.80, 0.00, 0.00, 0.00
15, -19345.75, 24645.17, -55410.06, -83637.41, -103651.07, -124326.88, -177184.91, -185258.56, 0.00, 0.00, 0.00
16, -9070.54, 22757.25, -45055.44, -73532.90, -93281.09, -114205.72, -166770.92, -175452.45, 0.00, 0.00, 0.00
17, -11084.32, 25614.18, -47085.54, -75556.91, -95361.34, -116244.09, -168904.95, -177601.56, 0.00, 0.00, 0.00
18, -21013.57, 27374.34, -57090.64, -85327.11, -105411.88, -126053.87, -179005.66, -186599.83, 0.00, 0.00, 0.00
19, -20967.63, 25243.81, -57042.70, -85247.85, -105355.16, -125993.90, -178828.28, -186464.03, 0.00, 0.00, 0.00
0, 0.00, 26979.54, -52039.57, -80427.99, -100485.88, -121250.99, -173820.14, -182220.89, 0.01, -0.03, 1.02
1, 0.00, 26721.44, -59385.25, -87585.22, -107854.12, -128447.40, -181189.41, -187500.02, 0.00, 0.00, 0.00
2, 0.00, 23594.23, -51490.50, -79846.48, -99938.70, -120710.15, -173067.25, -181533.31, 0.00, 0.00, 0.00
3, 0.00, 23392.51, -42126.87, -70724.31, -90582.25, -111572.84, -163718.97, -172626.77, 0.00, 0.00, 0.00
4, 0.00, 26629.29, -49842.00, -78299.61, -98360.28, -119173.82, -171548.50, -180273.88, 0.01, -0.03, 1.02
5, 0.00, 27037.36, -59005.90, -87240.46, -107554.27, -128153.79, -180775.05, -187500.02, 0.00, 0.00, 0.00
6, 0.00, 24112.01, -53602.95, -81933.96, -102133.68, -122856.18, -175160.31, -183439.84, 0.00, 0.00, 0.00
7, 0.00, 23013.31, -42502.60, -71105.52, -91028.15, -112009.93, -164029.97, -173035.38, 0.00, 0.00, 0.00
8, 0.00, 26168.71, -47682.44, -76210.28, -96266.86, -117131.70, -169321.52, -178282.14, 0.00, 0.00, 0.00
9, 0.00, 27244.45, -58141.45, -86424.45, -106766.45, -127387.57, -179869.44, -187279.30, 0.00, 0.00, 0.00
10, 0.00, 24703.95, -55441.60, -83758.09, -104055.52, -124737.48, -177010.13, -185064.55, 0.00, 0.00, 0.00
11, 0.00, 22805.89, -43459.90, -72059.16, -92058.77, -113020.05, -164962.94, -174024.42, 0.00, 0.00, 0.00
12, 0.00, 25641.00, -45674.71, -74268.79, -94325.12, -115241.19, -167287.77, -176368.58, 0.00, 0.00, 0.00
13, 0.00, 27333.93, -56838.23, -85180.39, -105535.14, -126192.38, -178551.23, -186390.59, 0.02, -0.03, 1.02
14, 0.00, 25272.27, -56887.80, -85201.52, -105582.09, -126237.13, -178490.28, -186323.48, 0.00, 0.00, 0.00
15, 0.00, 22771.31, -44903.82, -73490.16, -93578.13, -114511.65, -166394.94, -175491.91, 0.00, 0.00, 0.00
16, 0.00, 25017.93, -43890.13, -72541.29, -92603.41, -113569.21, -165481.20, -174636.67, 0.00, 0.00, 0.00
17, 0.00, 27283.19, -55087.68, -83493.28, -103852.33, -124558.42, -176781.77, -185099.39, 0.00, 0.00, 0.00
18, 0.00, 25786.40, -57727.78, -86046.79, -106496.11, -127135.91, -179366.34, -187133.69, 0.00, 0.00, 0.00
19, 0.00, 22887.72, -46602.74, -75164.69, -95346.59, -116241.85, -168102.66, -177214.39, 0.00, 0.00, 0.00
20, 0.00, 24395.36, -42438.07, -71133.55, -91211.30, -112209.06, -164024.67, -173213.34, 0.00, 0.00, 0.00
21, 0.00, 27140.38, -52908.68, -81384.46, -101738.19, -122495.85, -174597.25, -183350.97, 0.00, 0.00, 0.00
22, 0.00, 26259.79, -58060.04, -86395.28, -106900.41, -127537.44, -179755.00, -187500.02, 0.00, 0.00, 0.00
23, 0.00, 23199.88, -48586.19, -77124.06, -97402.80, -118258.27, -170143.28, -179212.14, 0.02, -0.03, 1.01
24, 0.00, 23876.65, -41736.94, -70467.94, -90571.99, -111590.05, -163361.39, -172547.45, 0.00, 0.00, 0.00
25, 0.00, 26891.72, -50735.69, -79290.40, -99631.22, -120440.49, -172463.31, -181495.58, 0.00, 0.00, 0.00
26, 0.00, 26675.82, -57909.93, -86281.73, -106825.76, -127466.05, -179682.41, -187500.02, 0.00, 0.00, 0.00
27, 0.00, 23667.99, -50844.23, -79356.20, -99737.93, -120539.49, -172500.55, -181466.75, 0.00, 0.00, 0.00
28, 0.00, 23434.69, -41884.91, -70627.91, -90782.75, -111794.86, -163582.23, -172729.84, 0.00, 0.00, 0.00
29, 0.00, 26490.97, -48568.08, -77194.07, -97522.70, -118381.45, -170365.69, -179512.48, 0.00, 0.00, 0.00
30, 0.00, 26915.88, -57218.25, -85635.50, -106200.31, -126856.47, -179065.98, -187337.81, 0.00, 0.00, 0.00
31, 0.00, 24165.21, -52555.88, -81055.76, -101521.44, -122282.23, -174425.63, -183182.23, 0.00, 0.00, 0.00
32, 0.00, 23095.43, -42219.76, -70974.30, -91180.59, -112182.55, -164145.33, -173112.52, 0.00, 0.00, 0.00
33, 0.00, 26058.36, -46513.15, -75211.52, -95526.59, -116434.08, -168541.92, -177551.34, 0.01, -0.03, 1.02
34, 0.00, 27144.65, -56443.05, -84912.42, -105493.88, -126169.09, -178550.53, -186720.80, 0.00, 0.00, 0.00
35, 0.00, 24701.45, -54259.95, -82751.68, -103297.69, -124020.62, -176296.27, -184773.48, 0.00, 0.00, 0.00
36, 0.00, 22897.60, -43028.70, -71784.66, -92049.22, -113034.71, -165046.58, -173987.83, 0.00, 0.00, 0.00
37, 0.00, 25578.24, -44709.10, -73471.01, -93775.71, -114729.53, -166831.16, -175818.88, 0.00, 0.00, 0.00
38, 0.00, 27239.80, -55316.79, -83841.26, -104428.17, -125135.23, -177526.58, -185811.94, 0.00, 0.00, 0.00
39, 0.00, 25283.60, -55740.15, -84230.87, -104848.32, -125543.62, -177898.89, -186113.42, 0.00, 0.00, 0.00
40, 0.00, 22834.77, -44486.88, -73234.64, -93574.28, -114529.04, -166584.97, -175504.78, 0.00, 0.00, 0.00
41, 0.00, 25014.26, -43169.75, -71990.07, -92294.95, -113285.74, -165363.55, -174321.41, 0.00, 0.00, 0.00
42, 0.00, 27214.05, -53777.00, -82367.34, -102952.16, -123697.16, -176061.88, -184541.20, 0.01, -0.03, 1.01
43, 0.00, 25805.45, -56664.60, -85163.56, -105843.02, -126520.95, -178927.56, -186964.31, 0.00, 0.00, 0.00
44, 0.00, 22977.79, -46176.82, -74904.76, -95330.99, -116250.86, -168340.09, -177232.50, 0.00, 0.00, 0.00
45, 0.00, 24395.79, -41858.98, -70724.59, -91037.73, -112062.37, -164103.95, -173034.48, 0.00, 0.00, 0.00
46, 0.00, 27080.17, -51849.34, -80509.30, -101081.73, -121874.80, -174187.78, -182866.97, 0.00, 0.00, 0.00
47, 0.00, 26229.62, -57023.77, -85546.23, -106267.99, -126939.89, -179378.13, -187367.09, 0.00, 0.00, 0.00
48, 0.00, 23224.65, -47864.34, -76582.70, -97084.35, -117967.45, -170118.11, -178959.38, 0.00, 0.00, 0.00
49, 0.00, 23848.15, -40920.77, -69832.15, -90155.42, -111203.30, -163242.47, -172133.80, 0.00, 0.00, 0.00
50, 0.00, 26850.39, -49711.75, -78453.41, -99003.85, -119850.14, -172133.69, -180935.28, 0.00, 0.00, 0.00
51, 0.00, 26655.84, -57073.05, -85629.71, -106385.45, -127058.06, -179541.16, -187482.31, 0.00, 0.00, 0.00
52, 0.00, 23640.63, -49902.21, -78601.74, -99192.01, -120027.16, -172259.05, -180995.72, 0.01, -0.03, 1.01
53, 0.00, 23400.98, -40703.20, -69639.70, -89994.87, -111046.50, -163097.92, -171969.27, 0.00, 0.00, 0.00
54, 0.00, 26525.78, -47746.12, -76557.29, -97094.21, -117983.70, -170242.70, -179104.00, 0.00, 0.00, 0.00
55, 0.00, 26972.47, -56817.86, -85410.84, -106193.63, -126870.27, -179380.50, -187265.28, 0.00, 0.00, 0.00
56, 0.00, 24149.47, -51948.65, -80627.63, -101301.95, -122091.57, -174392.78, -182946.20, 0.00, 0.00, 0.00
57, 0.00, 23016.26, -41044.53, -69987.94, -90386.23, -111433.43, -163491.47, -172360.23, 0.00, 0.00, 0.00
58, 0.00, 26068.86, -45666.42, -74544.12, -95059.93, -116004.84, -168218.17, -177120.84, 0.00, 0.00, 0.00
59, 0.00, 27181.80, -56026.61, -84661.01, -105453.67, -126158.47, -178657.31, -186645.06, 0.00, 0.00, 0.00
60, 0.00, 24705.27, -53675.90, -82336.29, -103087.70, -123844.13, -176196.84, -184550.84, 0.00, 0.00, 0.00
61, 0.00, 22798.85, -41880.24, -70820.13, -91274.06, -112306.85, -164362.42, -173248.67, 0.00, 0.00, 0.00
62, 0.00, 25536.00, -43650.36, -72591.24, -93088.42, -114087.77, -166236.00, -175168.52, 0.02, -0.03, 1.01
63, 0.00, 27275.19, -54771.63, -83458.46, -104250.92, -124991.55, -177441.58, -185639.53, 0.00, 0.00, 0.00
64, 0.00, 25277.43, -55121.30, -83772.46, -104591.99, -125323.37, -177722.89, -185870.13, 0.00, 0.00, 0.00
65, 0.00, 22756.33, -43264.28, -72186.84, -92709.67, -113716.87, -165792.42, -174683.69, 0.00, 0.00, 0.00
66, 0.00, 24968.15, -41957.71, -70954.91, -91439.76, -112483.79, -164584.67, -173516.45, 0.00, 0.00, 0.00
67, 0.00, 27266.02, -53183.25, -81937.34, -102716.23, -123499.11, -175904.38, -184315.77, 0.00, 0.00, 0.00
68, 0.00, 25824.22, -56186.85, -84844.13, -105719.63, -126429.38, -178876.83, -186825.86, 0.00, 0.00, 0.00
69, 0.00, 22899.45, -45102.27, -74000.90, -94604.36, -115569.89, -167672.75, -176562.44, 0.00, 0.00, 0.00
70, 0.00, 24375.18, -40679.82, -69722.62, -90209.67, -111283.37, -163336.23, -172275.30, 0.00, 0.00, 0.00
71, 0.00, 27138.32, -51300.85, -80123.47, -100886.85, -121715.13, -174056.14, -182687.48, 0.00, 0.00, 0.00
72, 0.00, 26311.82, -56769.50, -85443.16, -106365.76, -127064.14, -179529.70, -187357.20, 0.01, -0.03, 1.02
73, 0.00, 23201.87, -47191.30, -76067.14, -96759.23, -117678.55, -169812.95, -178667.97, 0.00, 0.00, 0.00
74, 0.00, 23825.86, -39937.58, -69016.53, -89519.16, -110612.88, -162624.30, -171565.66, 0.00, 0.00, 0.00
75, 0.00, 26895.43, -49237.09, -78134.32, -98875.98, -119756.22, -172025.03, -180836.69, 0.00, 0.00, 0.00
76, 0.00, 26700.12, -56841.54, -85544.98, -106498.15, -127199.33, -179669.27, -187481.59, 0.00, 0.00, 0.00
77, 0.00, 23625.37, -49368.14, -78219.23, -98996.41, -119870.77, -172056.69, -180817.14, 0.00, 0.00, 0.00
78, 0.00, 23328.43, -39795.94, -68892.08, -89423.20, -110526.55, -162517.50, -171468.52, 0.00, 0.00, 0.00
79, 0.00, 26532.48, -47068.50, -76035.83, -96752.52, -117690.34, -169892.63, -178830.36, 0.00, 0.00, 0.00
80, 0.00, 27023.39, -56382.77, -85125.27, -106092.87, -126812.13, -179269.80, -187196.50, 0.00, 0.00, 0.00
81, 0.00, 24150.86, -51371.15, -80203.40, -101059.23, -121890.48, -174138.05, -182757.67, 0.01, -0.03, 1.02
82, 0.00, 23000.08, -40212.17, -69320.05, -89889.73, -110982.30, -162984.64, -171940.50, 0.00, 0.00, 0.00
83, 0.00, 26075.63, -44916.16, -73959.38, -94645.24, -115633.26, -167794.52, -176790.58, 0.00, 0.00, 0.00
84, 0.00, 27211.19, -55489.93, -84285.34, -105252.91, -125994.12, -178445.75, -186533.38, 0.00, 0.00, 0.00
85, 0.00, 24720.20, -53226.03, -82046.30, -102973.16, -123764.66, -176083.59, -184506.41, 0.00, 0.00, 0.00
86, 0.00, 22778.30, -41265.41, -70370.62, -90994.58, -112064.69, -164091.50, -173050.73, 0.00, 0.00, 0.00
87, 0.00, 25550.05, -43057.26, -72167.73, -92833.99, -113866.96, -165989.22, -174995.05, 0.00, 0.00, 0.00
88, 0.00, 27293.58, -54286.02, -83142.52, -104104.84, -124876.48, -177304.38, -185565.50, 0.00, 0.00, 0.00
89, 0.00, 25307.18, -54757.64, -83574.71, -104566.95, -125326.59, -177706.63, -185892.88, 0.00, 0.00, 0.00
90, 0.00, 22756.11, -42823.32, -71913.92, -92606.00, -113644.85, -165695.17, -174667.17, 0.00, 0.00, 0.00
91, 0.00, 24973.29, -41423.61, -70592.93, -91244.38, -112322.92, -164392.63, -173411.11, 0.01, -0.03, 1.02
92, 0.00, 27274.16, -52672.46, -81597.23, -102544.01, -123362.83, -175731.89, -184235.03, 0.00, 0.00, 0.00
93, 0.00, 25841.03, -55757.07, -84585.99, -105628.40, -126374.28, -178790.97, -186805.39, 0.00, 0.00, 0.00
94, 0.00, 22900.32, -44696.36, -73768.33, -94538.40, -115539.78, -167625.38, -176581.55, 0.00, 0.00, 0.00
95, 0.00, 24350.84, -40156.72, -69373.02, -90021.52, -111135.06, -163169.27, -172171.22, 0.00, 0.00, 0.00
96, 0.00, 27121.67, -50704.19, -79702.34, -100623.73, -121492.61, -173811.61, -182537.58, 0.00, 0.00, 0.00
97, 0.00, 26326.26, -56211.46, -85060.25, -106138.77, -126877.17, -179331.08, -187280.48, 0.00, 0.00, 0.00
98, 0.00, 23213.27, -46743.15, -75793.27, -96640.05, -117597.35, -169747.13, -178640.48, 0.00, 0.00, 0.00
99, 0.00, 23805.41, -39447.81, -68699.78, -89354.85, -110487.13, -162514.52, -171484.02, 0.00, 0.00, 0.00
100, 0.00, 26868.88, -48622.39, -77694.20, -98584.53, -119506.37, -171786.56, -180654.66, 0.00, 0.00, 0.00
101, 0.00, 26709.08, -56228.61, -85108.76, -106208.84, -126953.34, -179433.11, -187377.73, 0.01, -0.03, 1.01
102, 0.00, 23650.89, -48897.84, -77921.69, -98849.00, -119765.13, -171989.27, -180777.11, 0.00, 0.00, 0.00
103, 0.00, 23341.48, -39348.84, -68617.33, -89298.10, -110442.85, -162479.42, -171427.13, 0.00, 0.00, 0.00
104, 0.00, 26514.04, -46469.99, -75614.48, -96475.09, -117458.44, -169704.63, -178654.22, 0.00, 0.00, 0.00
105, 0.00, 27010.92, -55750.84, -84671.18, -105781.75, -126549.34, -179049.22, -187074.95, 0.00, 0.00, 0.00
106, 0.00, 24187.67, -50921.30, -79926.30, -100929.81, -121806.85, -174114.58, -182753.64, 0.00, 0.00, 0.00
107, 0.00, 23002.65, -39849.61, -69125.61, -89846.41, -110983.94, -163051.92, -171979.70, 0.00, 0.00, 0.00
108, 0.00, 26044.39, -44398.21, -73613.03, -94446.96, -115483.68, -167703.34, -176678.84, 0.00, 0.00, 0.00
109, 0.00, 27197.36, -54865.08, -83837.05, -104949.53, -125742.73, -178244.47, -186406.03, 0.00, 0.00, 0.00
110, 0.00, 24733.63, -52704.18, -81697.75, -102772.47, -123615.36, -176003.55, -184454.53, 0.00, 0.00, 0.00
111, 0.00, 22797.10, -40888.60, -70158.63, -90935.09, -112056.20, -164159.61, -173079.92, 0.01, -0.03, 1.01
112, 0.00, 25534.39, -42522.20, -71800.55, -92612.46, -113703.90, -165896.31, -174865.22, 0.00, 0.00, 0.00
113, 0.00, 27279.81, -53590.94, -82620.70, -103723.20, -124557.62, -177048.91, -185386.06, 0.00, 0.00, 0.00
114, 0.00, 25311.63, -54094.37, -83084.92, -104218.42, -125038.72, -177501.80, -185764.20, 0.00, 0.00, 0.00
115, 0.00, 22760.98, -42391.80, -71646.03, -92487.27, -113580.81, -165735.86, -174639.36, 0.00, 0.00, 0.00
116, 0.00, 24925.21, -40860.29, -70191.72, -90987.82, -112124.59, -164298.17, -173239.02, 0.00, 0.00, 0.00
117, 0.00, 27247.40, -51898.76, -80990.02, -102074.31, -122954.41, -175422.08, -183964.02, 0.00, 0.00, 0.00
118, 0.00, 25844.67, -55015.38, -84007.40, -105188.06, -125992.98, -178524.73, -186654.84, 0.00, 0.00, 0.00
119, 0.00, 22938.97, -44217.72, -73447.00, -94359.49, -115414.39, -167643.64, -176515.28, 0.00, 0.00, 0.00
120, 0.00, 24360.45, -39696.25, -69071.85, -89860.94, -111028.87, -163206.33, -172109.97, 0.02, -0.03, 1.02
121, 0.00, 27104.26, -50038.89, -79202.06, -100256.80, -121187.84, -173642.83, -182330.70, 0.00, 0.00, 0.00
122, 0.00, 26331.00, -55566.37, -84582.20, -105791.45, -126594.24, -179187.97, -187184.67, 0.00, 0.00, 0.00
123, 0.00, 23257.66, -46354.01, -75563.98, -96550.23, -117564.67, -169867.70, -178683.58, 0.00, 0.00, 0.00
124, 0.00, 23818.33, -39090.90, -68502.20, -89299.22, -110486.50, -162668.03, -171538.59, 0.00, 0.00, 0.00
125, 0.00, 26856.65, -48060.27, -77297.88, -98324.56, -119306.32, -171734.86, -180528.13, 0.00, 0.00, 0.00
126, 0.00, 26717.35, -55624.46, -84672.20, -105905.42, -126711.19, -179339.89, -187282.27, 0.00, 0.00, 0.00
127, 0.00, 23685.09, -48479.97, -77668.33, -98731.92, -119701.74, -172079.70, -180794.30, 0.00, 0.00, 0.00
128, 0.00, 23345.68, -38987.27, -68420.88, -89236.52, -110432.68, -162623.00, -171473.23, 0.00, 0.00, 0.00
129, 0.00, 26493.37, -45928.59, -75242.25, -96230.83, -117270.70, -169662.97, -178525.59, 0.00, 0.00, 0.00
130, 0.00, 27009.65, -55181.09, -84272.20, -105507.14, -126330.76, -178975.33, -186972.73, 0.01, -0.04, 1.01
131, 0.00, 24214.96, -50476.88, -79649.23, -100779.27, -121709.71, -174164.16, -182739.75, 0.00, 0.00, 0.00
132, 0.00, 23000.21, -39470.50, -68911.09, -89760.06, -110949.05, -163163.55, -172000.94, 0.00, 0.00, 0.00
133, 0.00, 26033.97, -43919.05, -73299.34, -94258.51, -115350.20, -167712.59, -176596.64, 0.00, 0.00, 0.00
134, 0.00, 27196.35, -54357.14, -83494.72, -104728.11, -125579.45, -178225.73, -186314.34, 0.00, 0.00, 0.00
135, 0.00, 24766.87, -52306.46, -81464.30, -102659.26, -123557.00, -176085.77, -184455.53, 0.00, 0.00, 0.00
136, 0.00, 22815.01, -40534.62, -69969.09, -90866.32, -112039.14, -164282.20, -173114.95, 0.00, 0.00, 0.00
137, 0.00, 25514.52, -42063.10, -71507.84, -92438.88, -113582.33, -165910.83, -174794.95, 0.00, 0.00, 0.00
138, 0.00, 27276.97, -53132.13, -82328.31, -103547.41, -124434.03, -177062.11, -185306.69, 0.00, 0.00, 0.00
139, 0.00, 25336.46, -53740.68, -82895.29, -104144.69, -125015.80, -177607.22, -185771.11, 0.00, 0.00, 0.00
140, 0.00, 22786.73, -42043.90, -71462.75, -92418.89, -113561.66, -165832.03, -174675.22, 0.01, -0.04, 1.01
141, 0.00, 24930.35, -40442.60, -69942.49, -90849.80, -112036.08, -164323.92, -173207.50, 0.00, 0.00, 0.00
142, 0.00, 27249.46, -51509.75, -80768.27, -101963.67, -122893.10, -175478.58, -183931.27, 0.00, 0.00, 0.00
143, 0.00, 25848.09, -54699.61, -83858.00, -105151.16, -126005.88, -178648.23, -186657.05, 0.00, 0.00, 0.00
144, 0.00, 22944.38, -43866.13, -73261.46, -94285.71, -115393.36, -167715.39, -176541.88, 0.00, 0.00, 0.00
145, 0.00, 24345.03, -39221.07, -68763.17, -89661.78, -110884.66, -163152.34, -172015.55, 0.00, 0.00, 0.00
146, 0.00, 27112.42, -49596.46, -78923.45, -100087.82, -121073.27, -173619.45, -182252.41, 0.00, 0.00, 0.00
147, 0.00, 26345.69, -55211.09, -84386.68, -105708.03, -126563.22, -179244.06, -187150.05, 0.00, 0.00, 0.00
148, 0.00, 23269.89, -45961.53, -75330.27, -96427.10, -117497.17, -169877.67, -178657.95, 0.00, 0.00, 0.00
149, 0.00, 23793.61, -38582.11, -68152.12, -89054.69, -110302.97, -162558.47, -171405.78, 0.01, -0.03, 1.01
150, 0.00, 26854.95, -47576.78, -76969.93, -98101.60, -119143.71, -171648.56, -180410.92, 0.00, 0.00, 0.00
151, 0.00, 26721.93, -55259.19, -84457.78, -105798.45, -126660.00, -179368.98, -187238.25, 0.00, 0.00, 0.00
152, 0.00, 23696.85, -48113.49, -77453.93, -98624.72, -119651.03, -172091.59, -180780.72, 0.00, 0.00, 0.00
153, 0.00, 23344.09, -38505.04, -68091.32, -89011.59, -110268.69, -162514.67, -171360.27, 0.00, 0.00, 0.00
154, 0.00, 26483.71, -45447.15, -74911.09, -96005.34, -117107.22, -169554.78, -178412.00, 0.00, 0.00, 0.00
155, 0.00, 27014.32, -54790.34, -84026.59, -105373.79, -126256.48, -178958.03, -186919.39, 0.00, 0.00, 0.00
156, 0.00, 24213.96, -50120.21, -79437.18, -100678.83, -121670.17, -174173.09, -182730.69, 0.00, 0.00, 0.00
157, 0.00, 22992.57, -39026.46, -68616.81, -89570.12, -110823.97, -163078.03, -171926.58, 0.00, 0.00, 0.00
158, 0.00, 26031.04, -43404.67, -72939.20, -93997.77, -115154.64, -167555.98, -176457.27, 0.00, 0.00, 0.00
159, 0.00, 27193.42, -53898.93, -83190.15, -104525.13, -125438.23, -178124.05, -186234.80, 0.02, -0.04, 1.01
160, 0.00, 24778.23, -51917.78, -81226.41, -102526.24, -123484.38, -176061.73, -184436.13, 0.00, 0.00, 0.00
161, 0.00, 22819.45, -40128.55, -69713.68, -90714.04, -111949.00, -164240.88, -173085.36, 0.00, 0.00, 0.00
162, 0.00, 25507.79, -41569.24, -71165.07, -92195.22, -113402.94, -165778.75, -174676.17, 0.00, 0.00, 0.00
163, 0.00, 27270.20, -52639.50, -81987.11, -103306.90, -124256.12, -176930.50, -185205.70, 0.00, 0.00, 0.00
164, 0.00, 25356.76, -53343.13, -82647.30, -103998.95, -124931.18, -177578.75, -185751.11, 0.00, 0.00, 0.00
165, 0.00, 22815.01, -41699.41, -71267.53, -92326.47, -113529.63, -165861.38, -174698.19, 0.00, 0.00, 0.00
166, 0.00, 24927.51, -40003.99, -69655.27, -90663.66, -111912.30, -164259.67, -173131.33, 0.00, 0.00, 0.00
167, 0.00, 27237.57, -51007.06, -80423.27, -101714.63, -122707.41, -175350.38, -183813.05, 0.00, 0.00, 0.00
168, 0.00, 25885.00, -54310.85, -83629.41, -105016.41, -125932.54, -178632.83, -186642.33, 0.00, 0.00, 0.00
169, 0.00, 22967.04, -43598.51, -73153.48, -94271.14, -115437.86, -167820.41, -176635.19, 0.02, -0.04, 1.01
170, 0.00, 24340.22, -38872.27, -68576.42, -89563.55, -110847.55, -163173.73, -172026.19, 0.00, 0.00, 0.00
171, 0.00, 27095.32, -49144.71, -78635.47, -99887.02, -120932.63, -173536.53, -182168.95, 0.00, 0.00, 0.00
172, 0.00, 26359.17, -54824.67, -84161.04, -105573.08, -126484.59, -179227.05, -187119.67, 0.00, 0.00, 0.00
173, 0.00, 23289.31, -45724.45, -75250.68, -96440.47, -117562.70, -169998.33, -178770.16, 0.00, 0.00, 0.00
174, 0.00, 23798.28, -38280.80, -68010.59, -89005.02, -110306.10, -162612.00, -171456.25, 0.00, 0.00, 0.00
175, 0.00, 26838.54, -47136.95, -76693.10, -97914.65, -119012.33, -171563.95, -180330.56, 0.00, 0.00, 0.00
176, 0.00, 26735.26, -54841.16, -84204.61, -105636.33, -126551.82, -179311.48, -187182.70, 0.00, 0.00, 0.00
177, 0.00, 23731.90, -47851.77, -77353.77, -98618.20, -119694.05, -172200.81, -180868.19, 0.00, 0.00, 0.00
178, 0.00, 23333.14, -38221.46, -67968.21, -88982.09, -110288.40, -162602.25, -171424.44, 0.00, 0.00, 0.00
179, 0.00, 26450.61, -45029.24, -74657.57, -95841.20, -116994.81, -169509.28, -178343.73, 0.02, -0.04, 1.02
180, 0.00, 27005.98, -54376.50, -83780.80, -105212.25, -126148.68, -178919.86, -186851.95, 0.00, 0.00, 0.00
181, 0.00, 24245.41, -49826.37, -79308.95, -100637.85, -121679.80, -174251.73, -182773.98, 0.00, 0.00, 0.00
182, 0.00, 23011.97, -38697.86, -68449.89, -89493.45, -110798.17, -163117.11, -171947.42, 0.00, 0.00, 0.00
183, 0.00, 26001.09, -42947.98, -72645.80, -93789.75, -115002.38, -167465.91, -176346.16, 0.00, 0.00, 0.00
184, 0.00, 27185.89, -53480.37, -82932.77, -104354.59, -125320.88, -178071.72, -186149.50, 0.00, 0.00, 0.00
185, 0.00, 24785.47, -51543.61, -81011.46, -102399.91, -123408.49, -176038.64, -184387.30, 0.00, 0.00, 0.00
186, 0.00, 22814.22, -39703.87, -69448.45, -90534.04, -111820.03, -164155.20, -172999.61, 0.00, 0.00, 0.00
187, 0.00, 25481.81, -41064.55, -70821.19, -91934.33, -113195.04, -165614.06, -174508.25, 0.00, 0.00, 0.00
188, 0.00, 27278.25, -52232.88, -81737.29, -103141.20, -124142.26, -176864.91, -185108.67, 0.01, -0.04, 1.02
189, 0.00, 25362.43, -53008.25, -82466.34, -103903.96, -124886.86, -177574.14, -185707.72, 0.00, 0.00, 0.00
190, 0.00, 22811.38, -41246.14, -70972.98, -92112.66, -113372.88, -165727.56, -174580.33, 0.00, 0.00, 0.00
191, 0.00, 24922.82, -39555.59, -69367.36, -90455.14, -111760.93, -164131.89, -173022.14, 0.00, 0.00, 0.00
192, 0.00, 27260.72, -50782.56, -80351.70, -101728.30, -122772.80, -175448.83, -183835.06, 0.00, 0.00, 0.00
193, 0.00, 25904.73, -54105.05, -83573.30, -105049.35, -126014.17, -178737.17, -186598.77, 0.00, 0.00, 0.00
194, 0.00, 22910.52, -42849.90, -72562.52, -93760.05, -114985.88, -167348.75, -176203.11, 0.00, 0.00, 0.00
0, 0.00, 27117.69, 0.00, -83738.80, -105097.83, -126083.26, -178809.23, -186523.92, 0.01, -0.04, 1.02
1, 0.00, 24483.29, 0.00, -79280.98, -100512.23, -121598.45, -174096.91, -182518.27, 0.00, 0.00, 0.00
2, 0.00, 23024.42, 0.00, -65959.80, -86817.13, -108214.11, -160391.63, -169398.28, 0.00, 0.00, 0.00
3, 0.00, 25941.77, 0.00, -70161.25, -91078.20, -112386.16, -164714.36, -173756.28, 0.00, 0.00, 0.00
4, 0.00, 27289.45, 0.00, -82766.88, -103976.00, -124994.21, -177667.89, -185630.05, 0.00, 0.00, 0.00
5, 0.00, 25020.05, 0.00, -81360.91, -102521.05, -123571.66, -176122.55, -184330.89, 0.00, 0.00, 0.00
6, 0.00, 22889.62, 0.00, -67549.36, -88329.98, -109703.41, -161888.31, -170966.98, 0.00, 0.00, 0.00
7, 0.00, 25392.83, 0.00, -68186.09, -88937.37, -110304.67, -162561.14, -171692.33, 0.01, -0.04, 1.02
8, 0.00, 27324.45, 0.00, -81259.23, -102312.80, -123380.87, -175993.34, -184295.84, 0.00, 0.00, 0.00
9, 0.00, 25560.22, 0.00, -83029.33, -104115.00, -125145.09, -177737.16, -185750.39, 0.00, 0.00, 0.00
10, 0.00, 22927.84, 0.00, -69732.03, -90456.86, -111796.38, -163992.11, -173130.81, 0.00, 0.00, 0.00
11, 0.00, 24829.30, 0.00, -66789.83, -87396.03, -108813.25, -160996.95, -170198.61, 0.00, 0.00, 0.00
12, 0.00, 27259.45, 0.00, -79524.58, -100425.76, -121551.55, -174079.14, -182704.03, 0.00, 0.00, 0.00
13, 0.00, 26094.95, 0.00, -84250.00, -105260.82, -126276.42, -178893.92, -186701.56, 0.00, 0.00, 0.00
14, 0.00, 23156.99, 0.00, -72378.66, -93071.37, -114361.31, -166592.34, -175731.20, 0.00, 0.00, 0.00
15, 0.00, 24257.41, 0.00, -65964.71, -86454.51, -107901.61, -160035.16, -169288.34, 0.00, 0.00, 0.00
16, 0.00, 27078.33, 0.00, -77477.40, -98228.70, -119412.98, -171861.13, -180794.58, 0.00, 0.00, 0.00
17, 0.00, 26509.12, 0.00, -84745.12, -105671.60, -126685.93, -179313.73, -187093.45, 0.01, -0.04, 1.01
18, 0.00, 23501.18, 0.00, -75035.77, -95705.85, -116943.02, -169217.67, -178312.72, 0.00, 0.00, 0.00
19, 0.00, 23732.43, 0.00, -65735.34, -86132.84, -107593.38, -159688.72, -168990.45, 0.00, 0.00, 0.00
20, 0.00, 26767.53, 0.00, -75165.07, -95766.36, -117015.02, -169373.17, -178568.30, 0.00, 0.00, 0.00
21, 0.00, 26837.09, 0.00, -84567.29, -105394.88, -126426.16, -179035.72, -187008.56, 0.00, 0.00, 0.00
22, 0.00, 24005.28, 0.00, -77803.91, -98452.44, -119637.89, -171986.36, -180980.13, 0.00, 0.00, 0.00
23, 0.00, 23393.80, 0.00, -66684.33, -87019.98, -108467.83, -160585.00, -169915.19, 0.00, 0.00, 0.00
24, 0.00, 26366.77, 0.00, -73037.83, -93500.49, -114808.19, -167122.09, -176469.13, 0.00, 0.00, 0.00
25, 0.00, 27048.00, 0.00, -83725.23, -104444.02, -125505.84, -178110.83, -186422.27, 0.00, 0.00, 0.00
26, 0.00, 24528.47, 0.00, -80041.30, -100662.33, -121807.88, -174267.58, -183096.30, 0.01, -0.03, 1.02
27, 0.00, 23121.96, 0.00, -67747.82, -88035.23, -109468.94, -161651.08, -170971.19, 0.00, 0.00, 0.00
28, 0.00, 25895.23, 0.00, -71087.13, -91426.45, -112791.93, -165104.66, -174468.22, 0.00, 0.00, 0.00
29, 0.00, 27182.43, 0.00, -82780.40, -103400.33, -124499.32, -177129.36, -185558.61, 0.00, 0.00, 0.00
30, 0.00, 25065.02, 0.00, -81928.22, -102523.98, -123642.63, -176198.22, -184754.27, 0.00, 0.00, 0.00
31, 0.00, 23008.10, 0.00, -69234.34, -89489.38, -110903.81, -163138.38, -172460.27, 0.00, 0.00, 0.00
32, 0.00, 25379.91, 0.00, -69332.77, -89555.50, -110975.76, -163269.16, -172634.72, 0.00, 0.00, 0.00
33, 0.00, 27233.12, 0.00, -81430.82, -101940.94, -123083.90, -175705.14, -184318.83, 0.00, 0.00, 0.00
34, 0.00, 25569.39, 0.00, -83455.87, -104013.66, -125109.39, -177740.91, -185999.30, 0.00, 0.00, 0.00
35, 0.00, 23039.35, 0.00, -71200.45, -91433.61, -112813.01, -165096.22, -174418.17, 0.00, 0.00, 0.00
36, 0.00, 24824.83, 0.00, -67965.17, -88085.27, -109547.10, -161812.14, -171192.16, 0.01, -0.04, 1.02
37, 0.00, 27177.57, 0.00, -79762.55, -100162.12, -121353.52, -173938.88, -182780.06, 0.00, 0.00, 0.00
38, 0.00, 26072.93, 0.00, -84527.66, -105046.55, -126126.51, -178808.98, -186803.05, 0.00, 0.00, 0.00
39, 0.00, 23255.74, 0.00, -73522.69, -93755.10, -115090.05, -167411.70, -176711.25, 0.00, 0.00, 0.00
40, 0.00, 24291.83, 0.00, -67115.55, -87155.93, -108648.36, -160871.41, -170281.44, 0.00, 0.00, 0.00
41, 0.00, 27006.18, 0.00, -77871.17, -98162.76, -119409.77, -171929.30, -181005.67, 0.00, 0.00, 0.00
42, 0.00, 26488.69, 0.00, -85109.59, -105578.98, -126658.08, -179361.17, -187170.75, 0.00, 0.00, 0.00
43, 0.00, 23582.45, 0.00, -76052.34, -96285.84, -117574.27, -169938.47, -179131.92, 0.00, 0.00, 0.00
44, 0.00, 23789.05, 0.00, -66855.16, -86828.34, -108335.13, -160522.48, -169974.19, 0.00, 0.00, 0.00
45, 0.00, 26751.75, 0.00, -75821.32, -95997.79, -117302.82, -169746.08, -179028.28, 0.00, 0.00, 0.00
46, 0.00, 26843.13, 0.00, -85170.25, -105580.49, -126669.48, -179365.84, -187124.03, 0.02, -0.04, 1.02
47, 0.00, 24018.80, 0.00, -78532.92, -98775.77, -120016.59, -172422.95, -181408.23, 0.00, 0.00, 0.00
48, 0.00, 23377.04, 0.00, -67161.49, -87093.95, -108602.48, -160754.88, -170257.44, 0.00, 0.00, 0.00
49, 0.00, 26374.70, 0.00, -73682.92, -93753.98, -115118.99, -167474.19, -176916.88, 0.00, 0.00, 0.00
50, 0.00, 27089.91, 0.00, -84699.83, -105043.96, -126154.52, -178814.83, -186683.34, 0.00, 0.00, 0.00
51, 0.00, 24544.88, 0.00, -80841.90, -101089.74, -122288.20, -174728.98, -183413.45, 0.00, 0.00, 0.00
52, 0.00, 23096.53, 0.00, -68127.84, -88036.79, -109530.95, -161656.19, -171216.59, 0.00, 0.00, 0.00
53, 0.00, 25915.44, 0.00, -71654.04, -91626.97, -113044.70, -165306.81, -174874.59, 0.00, 0.00, 0.00
54, 0.00, 27240.74, 0.00, -83746.93, -104017.02, -125156.78, -177755.19, -185876.92, 0.00, 0.00, 0.00
55, 0.00, 25091.64, 0.00, -82863.14, -103112.62, -124272.14, -176744.77, -185064.06, 0.00, 0.00, 0.00
56, 0.00, 22994.87, 0.00, -69698.34, -89601.79, -111066.20, -163170.48, -172777.91, 0.01, -0.04, 1.01
57, 0.00, 25385.50, 0.00, -69833.02, -89711.74, -111181.22, -163345.31, -173003.09, 0.00, 0.00, 0.00
58, 0.00, 27273.55, 0.00, -82329.01, -102514.13, -123694.48, -176205.44, -184695.55, 0.00, 0.00, 0.00
59, 0.00, 25626.81, 0.00, -84394.91, -104637.66, -125767.83, -178268.25, -186248.63, 0.00, 0.00, 0.00
60, 0.00, 23044.00, 0.00, -71735.30, -91650.62, -113073.54, -165185.38, -174788.64, 0.00, 0.00, 0.00
61, 0.00, 24827.22, 0.00, -68410.28, -88216.21, -109723.13, -161814.02, -171520.89, 0.00, 0.00, 0.00
62, 0.00, 27207.55, 0.00, -80542.38, -100643.35, -121871.63, -174294.03, -183173.55, 0.00, 0.00, 0.00
63, 0.00, 26110.77, 0.00, -85438.06, -105667.96, -126781.26, -179293.78, -187000.75, 0.00, 0.00, 0.00
64, 0.00, 23238.01, 0.00, -74142.09, -94082.16, -115454.06, -167574.20, -177123.75, 0.00, 0.00, 0.00
65, 0.00, 24260.43, 0.00, -67520.95, -87269.86, -108800.84, -160816.38, -170574.38, 0.01, -0.03, 1.01
66, 0.00, 27024.00, 0.00, -78499.08, -98509.92, -119791.24, -172113.75, -181358.45, 0.00, 0.00, 0.00
67, 0.00, 26521.04, 0.00, -85880.85, -106081.06, -127191.28, -179695.70, -187301.22, 0.00, 0.00, 0.00
68, 0.00, 23595.08, 0.00, -76608.30, -96576.27, -117898.95, -170038.20, -179447.69, 0.00, 0.00, 0.00
69, 0.00, 23762.92, 0.00, -67179.87, -86888.38, -108435.46, -160387.11, -170195.88, 0.00, 0.00, 0.00
70, 0.00, 26731.21, 0.00, -76225.28, -96147.45, -117488.09, -169697.95, -179252.30, 0.00, 0.00, 0.00
71, 0.00, 26853.29, 0.00, -85766.19, -105933.23, -127049.32, -179517.56, -187216.55, 0.00, 0.00, 0.00
72, 0.00, 24052.20, 0.00, -79062.86, -99065.03, -120333.67, -172503.19, -181669.14, 0.00, 0.00, 0.00
73, 0.00, 23393.40, 0.00, -67537.78, -87232.04, -108772.19, -160685.17, -170535.89, 0.00, 0.00, 0.00
74, 0.00, 26369.87, 0.00, -74090.71, -93931.19, -115325.61, -167443.63, -177192.27, 0.00, 0.00, 0.00
75, 0.00, 27088.93, 0.00, -85220.41, -105345.24, -126480.88, -178908.41, -186786.19, 0.01, -0.03, 1.01
76, 0.00, 24577.49, 0.00, -81431.80, -101468.73, -122690.66, -174897.13, -183683.55, 0.00, 0.00, 0.00
77, 0.00, 23119.32, 0.00, -68604.81, -88305.16, -109826.99, -161708.31, -171604.73, 0.00, 0.00, 0.00
78, 0.00, 25899.39, 0.00, -72045.28, -91811.66, -113260.89, -165277.05, -175165.86, 0.00, 0.00, 0.00
79, 0.00, 27241.72, 0.00, -84165.18, -104237.60, -125405.95, -177758.45, -185988.23, 0.00, 0.00, 0.00
80, 0.00, 25109.48, 0.00, -83344.89, -103403.59, -124591.32, -176818.59, -185240.17, 0.00, 0.00, 0.00
81, 0.00, 23015.03, 0.00, -70177.86, -89894.63, -111388.88, -163247.61, -173169.28, 0.00, 0.00, 0.00
82, 0.00, 25375.40, 0.00, -70217.94, -89914.16, -111414.59, -163333.13, -173304.48, 0.00, 0.00, 0.00
83, 0.00, 27269.66, 0.00, -82670.52, -102677.67, -123889.88, -176153.48, -184809.14, 0.00, 0.00, 0.00
84, 0.00, 25649.99, 0.00, -84844.54, -104915.91, -126074.81, -178330.53, -186378.61, 0.00, 0.00, 0.00
85, 0.00, 23053.34, 0.00, -72250.45, -91998.93, -113449.65, -165308.73, -175209.31, 0.02, -0.03, 1.01
86, 0.00, 24816.58, 0.00, -68830.12, -88471.58, -110009.98, -161843.25, -171871.45, 0.00, 0.00, 0.00
87, 0.00, 27206.81, 0.00, -80870.93, -100812.22, -122074.43, -174237.08, -183325.63, 0.00, 0.00, 0.00
88, 0.00, 26121.68, 0.00, -85835.08, -105911.63, -127058.35, -179310.98, -187075.64, 0.00, 0.00, 0.00
89, 0.00, 23264.16, 0.00, -74632.31, -94428.38, -115833.55, -167693.48, -177506.34, 0.00, 0.00, 0.00
90, 0.00, 24271.85, 0.00, -67974.18, -87583.32, -109151.81, -160902.56, -170977.66, 0.00, 0.00, 0.00
91, 0.00, 27024.51, 0.00, -78850.56, -98724.21, -120046.79, -172098.92, -181581.23, 0.00, 0.00, 0.00
92, 0.00, 26536.62, 0.00, -86292.88, -106362.02, -127512.70, -179748.78, -187377.33, 0.00, 0.00, 0.00
93, 0.00, 23630.58, 0.00, -77181.22, -97025.48, -118387.28, -170254.33, -179872.39, 0.00, 0.00, 0.00
94, 0.00, 23786.17, 0.00, -67733.05, -87321.47, -108908.06, -160584.27, -170708.47, 0.00, 0.00, 0.00
95, 0.00, 26745.81, 0.00, -76698.80, -96502.06, -117884.95, -169818.47, -179625.30, 0.01, -0.03, 1.02
96, 0.00, 26881.19, 0.00, -86189.77, -106240.38, -127402.46, -179595.56, -187296.50, 0.00, 0.00, 0.00
97, 0.00, 24071.24, 0.00, -79641.41, -99535.69, -120848.37, -172740.95, -182048.77, 0.00, 0.00, 0.00
98, 0.00, 23376.21, 0.00, -68077.45, -87665.82, -109251.57, -160880.75, -171047.14, 0.00, 0.00, 0.00
99, 0.00, 26354.67, 0.00, -74422.59, -94156.63, -115598.32, -167429.25, -177464.22, 0.00, 0.00, 0.00
100, 0.00, 27094.38, 0.00, -85512.38, -105532.06, -126713.22, -178853.44, -186839.81, 0.00, 0.00, 0.00
101, 0.00, 24580.08, 0.00, -81789.26, -101725.67, -122990.45, -174911.36, -183874.36, 0.00, 0.00, 0.00
102, 0.00, 23118.36, 0.00, -69002.27, -88607.09, -110169.55, -161768.42, -171972.34, 0.00, 0.00, 0.00
103, 0.00, 25872.90, 0.00, -72247.97, -91917.55, -113411.32, -165140.73, -175325.45, 0.00, 0.00, 0.00
104, 0.00, 27231.49, 0.00, -84358.09, -104336.73, -125551.31, -177616.88, -186008.44, 0.01, -0.03, 1.02
105, 0.00, 25125.46, 0.00, -83672.68, -103647.88, -124877.90, -176830.72, -185380.20, 0.00, 0.00, 0.00
106, 0.00, 23022.68, 0.00, -70568.19, -90205.80, -111742.13, -163331.34, -173534.83, 0.00, 0.00, 0.00
107, 0.00, 25359.82, 0.00, -70481.42, -90097.94, -111644.45, -163290.48, -173547.34, 0.00, 0.00, 0.00
108, 0.00, 27269.87, 0.00, -82905.05, -102837.42, -124096.34, -176087.17, -184889.53, 0.00, 0.00, 0.00
109, 0.00, 25674.02, 0.00, -85241.26, -105245.17, -126449.54, -178433.02, -186512.09, 0.00, 0.00, 0.00
110, 0.00, 23071.85, 0.00, -72743.46, -92430.88, -113925.54, -165513.08, -175657.56, 0.00, 0.00, 0.00
111, 0.00, 24806.26, 0.00, -69171.09, -88750.33, -110334.87, -161895.64, -172196.52, 0.00, 0.00, 0.00
112, 0.00, 27198.18, 0.00, -81125.63, -101003.71, -122313.08, -174204.75, -183458.11, 0.00, 0.00, 0.00
113, 0.00, 26136.18, 0.00, -86186.89, -106206.39, -127397.48, -179383.77, -187159.67, 0.00, 0.00, 0.00
114, 0.00, 23277.17, 0.00, -75127.38, -94872.91, -116317.73, -167907.91, -177938.14, 0.01, -0.03, 1.01
115, 0.00, 24248.15, 0.00, -68283.37, -87840.38, -109451.48, -160929.67, -171277.44, 0.00, 0.00, 0.00
116, 0.00, 27007.88, 0.00, -78988.31, -98808.88, -120176.63, -171953.95, -181653.09, 0.00, 0.00, 0.00
117, 0.00, 26546.41, 0.00, -86505.25, -106530.00, -127720.63, -179688.78, -187401.22, 0.00, 0.00, 0.00
118, 0.00, 23648.39, 0.00, -77540.30, -97349.24, -118744.51, -170355.88, -180169.45, 0.00, 0.00, 0.00
119, 0.00, 23765.87, 0.00, -68009.25, -87563.88, -109186.01, -160606.48, -170981.31, 0.00, 0.00, 0.00
120, 0.00, 26721.49, 0.00, -76788.84, -96554.03, -117977.80, -169654.23, -179679.44, 0.00, 0.00, 0.00
121, 0.00, 26872.79, 0.00, -86354.04, -106369.29, -127571.62, -179506.81, -187304.53, 0.00, 0.00, 0.00
122, 0.00, 24104.95, 0.00, -79979.79, -99846.96, -121193.84, -172832.63, -182298.23, 0.00, 0.00, 0.00
123, 0.00, 23381.38, 0.00, -68429.38, -87994.86, -109611.97, -160989.08, -171393.30, 0.00, 0.00, 0.00
124, 0.00, 26346.92, 0.00, -74657.75, -94368.66, -115848.30, -167423.86, -177668.22, 0.01, -0.04, 1.01
125, 0.00, 27106.27, 0.00, -85740.53, -105739.35, -126963.09, -178848.13, -186880.20, 0.00, 0.00, 0.00
126, 0.00, 24615.35, 0.00, -82185.46, -102109.94, -123413.74, -175080.02, -184111.41, 0.00, 0.00, 0.00
127, 0.00, 23123.19, 0.00, -69426.57, -89023.04, -110626.09, -161963.55, -172391.78, 0.00, 0.00, 0.00
128, 0.00, 25863.72, 0.00, -72576.88, -92239.99, -113778.22, -165245.30, -175638.95, 0.00, 0.00, 0.00
129, 0.00, 27229.81, 0.00, -84628.38, -104601.22, -125861.64, -177665.56, -186106.23, 0.00, 0.00, 0.00
130, 0.00, 25155.39, 0.00, -84010.37, -103984.60, -125258.39, -176951.72, -185537.59, 0.00, 0.00, 0.00
131, 0.00, 23035.15, 0.00, -70962.80, -90606.34, -112185.95, -163507.63, -173927.45, 0.00, 0.00, 0.00
132, 0.00, 25346.43, 0.00, -70777.04, -90401.05, -111993.23, -163368.53, -173847.23, 0.00, 0.00, 0.00
133, 0.00, 27264.66, 0.00, -83138.80, -103076.54, -124385.13, -176102.95, -185004.17, 0.01, -0.04, 1.02
134, 0.00, 25670.33, 0.00, -85441.15, -105451.64, -126708.26, -178418.25, -186567.59, 0.00, 0.00, 0.00
135, 0.00, 23090.04, 0.00, -72982.34, -92681.66, -114226.73, -165544.25, -175903.28, 0.00, 0.00, 0.00
136, 0.00, 24783.68, 0.00, -69365.26, -88958.22, -110594.73, -161884.00, -172415.14, 0.00, 0.00, 0.00
137, 0.00, 27184.10, 0.00, -81310.50, -101204.45, -122566.81, -174186.89, -183570.44, 0.00, 0.00, 0.00
138, 0.00, 26145.68, 0.00, -86383.72, -106422.24, -127668.06, -179383.16, -187194.33, 0.00, 0.00, 0.00
139, 0.00, 23309.40, 0.00, -75302.27, -95068.91, -116571.12, -167889.22, -178103.59, 0.00, 0.00, 0.00
140, 0.00, 24246.23, 0.00, -68450.92, -88030.33, -109699.27, -160905.55, -171468.30, 0.00, 0.00, 0.00
141, 0.00, 27006.00, 0.00, -79276.98, -99125.85, -120546.73, -172056.89, -181857.00, 0.00, 0.00, 0.00
142, 0.00, 26564.27, 0.00, -86879.73, -106935.97, -128179.29, -179878.83, -187463.30, 0.00, 0.00, 0.00
143, 0.00, 23662.40, 0.00, -77846.30, -97687.13, -119137.74, -170463.52, -180376.61, 0.02, -0.04, 1.01
0, 0.00, 27222.72, 0.00, 0.00, -104137.96, -125465.84, -177001.00, -185379.03, 0.00, 0.00, 0.00
1, 0.00, 25372.04, 0.00, 0.00, -104945.70, -126255.75, -177713.14, -185783.00, 0.00, 0.00, 0.00
2, 0.00, 23177.37, 0.00, 0.00, -89304.52, -110960.38, -161970.34, -172585.13, 0.00, 0.00, 0.00
3, 0.00, 25214.87, 0.00, 0.00, -87204.12, -108913.84, -159941.08, -170692.44, 0.01, -0.04, 1.01
4, 0.00, 27219.91, 0.00, 0.00, -102175.84, -123558.45, -174982.39, -183925.86, 0.00, 0.00, 0.00
5, 0.00, 25830.37, 0.00, 0.00, -106545.20, -127831.99, -179299.23, -186802.27, 0.00, 0.00, 0.00
6, 0.00, 23255.69, 0.00, 0.00, -91959.77, -113567.33, -164564.75, -175088.89, 0.00, 0.00, 0.00
7, 0.00, 24653.88, 0.00, 0.00, -85744.89, -107497.60, -158412.42, -169282.25, 0.00, 0.00, 0.00
8, 0.00, 27105.74, 0.00, 0.00, -99914.91, -121360.85, -172648.98, -182173.50, 0.00, 0.00, 0.00
9, 0.00, 26293.72, 0.00, 0.00, -107632.12, -128909.10, -180357.53, -187380.86, 0.00, 0.00, 0.00
10, 0.00, 23505.67, 0.00, 0.00, -95099.74, -116652.34, -167641.59, -177881.70, 0.00, 0.00, 0.00
11, 0.00, 24139.48, 0.00, 0.00, -85079.61, -106860.06, -157661.95, -168640.47, 0.00, 0.00, 0.00
12, 0.00, 26890.40, 0.00, 0.00, -97469.20, -118981.77, -170118.39, -180182.53, 0.00, 0.00, 0.00
13, 0.00, 26643.23, 0.00, 0.00, -108026.73, -129306.65, -180696.44, -187500.02, 0.01, -0.03, 1.01
14, 0.00, 23868.04, 0.00, 0.00, -98298.88, -119790.20, -170763.50, -180541.45, 0.00, 0.00, 0.00
15, 0.00, 23680.31, 0.00, 0.00, -85171.12, -106957.32, -157643.70, -168741.30, 0.00, 0.00, 0.00
16, 0.00, 26575.78, 0.00, 0.00, -94775.95, -116356.00, -167319.09, -177882.31, 0.00, 0.00, 0.00
17, 0.00, 26922.16, 0.00, 0.00, -107641.33, -128941.87, -180233.53, -187299.47, 0.00, 0.00, 0.00
18, 0.00, 24328.40, 0.00, 0.00, -101225.66, -122669.48, -173627.61, -182838.05, 0.00, 0.00, 0.00
19, 0.00, 23351.49, 0.00, 0.00, -86042.39, -107825.23, -158413.89, -169614.13, 0.00, 0.00, 0.00
20, 0.00, 26172.46, 0.00, 0.00, -92169.36, -113822.08, -164612.41, -175562.23, 0.00, 0.00, 0.00
21, 0.00, 27110.83, 0.00, 0.00, -106678.15, -128010.05, -179186.08, -186716.66, 0.00, 0.00, 0.00
22, 0.00, 24834.11, 0.00, 0.00, -103954.00, -125344.48, -176306.13, -184770.44, 0.00, 0.00, 0.00
23, 0.00, 23159.96, 0.00, 0.00, -87763.70, -109513.98, -160036.61, -171278.91, 0.02, -0.04, 1.01
24, 0.00, 25705.44, 0.00, 0.00, -89883.00, -111595.64, -162229.17, -173449.02, 0.00, 0.00, 0.00
25, 0.00, 27183.14, 0.00, 0.00, -105233.93, -126612.01, -177652.98, -185802.52, 0.00, 0.00, 0.00
26, 0.00, 25348.33, 0.00, 0.00, -106205.18, -127562.85, -178509.67, -186196.69, 0.00, 0.00, 0.00
27, 0.00, 23116.96, 0.00, 0.00, -90149.52, -111861.29, -162328.16, -173521.25, 0.00, 0.00, 0.00
28, 0.00, 25163.82, 0.00, 0.00, -87959.41, -109726.88, -160209.00, -171625.09, 0.00, 0.00, 0.00
29, 0.00, 27185.51, 0.00, 0.00, -103275.13, -124705.45, -175596.89, -184509.53, 0.00, 0.00, 0.00
30, 0.00, 25839.67, 0.00, 0.00, -107829.17, -129157.20, -180082.83, -187117.22, 0.00, 0.00, 0.00
31, 0.00, 23230.23, 0.00, 0.00, -92997.76, -114652.06, -165075.89, -176086.28, 0.00, 0.00, 0.00
32, 0.00, 24622.41, 0.00, 0.00, -86591.15, -108395.18, -158727.95, -170292.61, 0.01, -0.03, 1.01
33, 0.00, 27082.00, 0.00, 0.00, -100954.04, -122443.97, -173164.45, -182856.98, 0.00, 0.00, 0.00
34, 0.00, 26274.34, 0.00, 0.00, -108829.39, -130144.81, -181022.75, -187500.02, 0.00, 0.00, 0.00
35, 0.00, 23499.93, 0.00, 0.00, -96175.46, -117767.60, -168160.33, -178772.63, 0.00, 0.00, 0.00
36, 0.00, 24102.36, 0.00, 0.00, -86001.09, -107823.85, -158018.88, -169714.58, 0.00, 0.00, 0.00
37, 0.00, 26866.71, 0.00, 0.00, -98482.21, -120034.72, -170569.31, -180980.22, 0.00, 0.00, 0.00
38, 0.00, 26646.50, 0.00, 0.00, -109203.96, -130521.02, -181310.14, -187500.02, 0.00, 0.00, 0.00
39, 0.00, 23897.66, 0.00, 0.00, -99508.13, -121037.87, -171394.63, -181366.45, 0.00, 0.00, 0.00
40, 0.00, 23673.80, 0.00, 0.00, -86212.06, -108040.30, -158093.95, -169904.86, 0.00, 0.00, 0.00
41, 0.00, 26537.02, 0.00, 0.00, -95842.69, -117463.82, -167797.38, -178826.52, 0.00, 0.00, 0.00
42, 0.00, 26894.09, 0.00, 0.00, -108802.74, -130136.45, -180803.44, -187500.02, 0.01, -0.03, 1.01
43, 0.00, 24330.72, 0.00, 0.00, -102401.81, -123872.02, -174198.34, -183485.53, 0.00, 0.00, 0.00
44, 0.00, 23331.44, 0.00, 0.00, -87076.02, -108885.00, -158833.08, -170711.64, 0.00, 0.00, 0.00
45, 0.00, 26115.42, 0.00, 0.00, -93013.59, -114697.46, -164843.64, -176364.06, 0.00, 0.00, 0.00
46, 0.00, 27093.69, 0.00, 0.00, -107622.28, -128985.34, -179517.14, -186957.11, 0.00, 0.00, 0.00
47, 0.00, 24829.86, 0.00, 0.00, -104936.59, -126357.47, -176668.88, -185191.44, 0.00, 0.00, 0.00
48, 0.00, 23151.38, 0.00, 0.00, -88727.75, -110507.78, -160379.73, -172265.69, 0.00, 0.00, 0.00
49, 0.00, 25651.78, 0.00, 0.00, -90716.66, -112460.45, -162444.72, -174280.05, 0.00, 0.00, 0.00
50, 0.00, 27180.90, 0.00, 0.00, -106122.81, -127528.23, -177924.81, -186105.45, 0.00, 0.00, 0.00
51, 0.00, 25370.77, 0.00, 0.00, -107283.16, -128661.02, -178962.41, -186531.30, 0.00, 0.00, 0.00
52, 0.00, 23127.57, 0.00, 0.00, -91260.65, -112991.20, -162800.52, -174559.39, 0.01, -0.03, 1.01
53, 0.00, 25149.73, 0.00, 0.00, -88958.84, -110748.09, -160567.55, -172624.58, 0.00, 0.00, 0.00
54, 0.00, 27169.35, 0.00, 0.00, -104267.58, -125719.88, -175951.05, -184966.11, 0.00, 0.00, 0.00
55, 0.00, 25836.78, 0.00, 0.00, -108945.77, -130291.80, -180557.23, -187358.70, 0.00, 0.00, 0.00
56, 0.00, 23238.24, 0.00, 0.00, -94176.81, -115848.88, -165605.33, -177080.23, 0.00, 0.00, 0.00
57, 0.00, 24591.12, 0.00, 0.00, -87620.09, -109446.70, -159105.81, -171334.70, 0.00, 0.00, 0.00
58, 0.00, 27053.41, 0.00, 0.00, -101890.96, -123404.34, -173448.64, -183399.50, 0.00, 0.00, 0.00
59, 0.00, 26268.42, 0.00, 0.00, -109810.54, -131147.61, -181341.31, -187500.02, 0.00, 0.00, 0.00
60, 0.00, 23515.73, 0.00, 0.00, -97243.38, -118856.78, -168563.13, -179577.17, 0.00, 0.00, 0.00
61, 0.00, 24083.49, 0.00, 0.00, -86943.34, -108790.27, -158298.52, -170653.34, 0.00, 0.00, 0.00
62, 0.00, 26824.86, 0.00, 0.00, -99253.74, -120834.33, -170682.47, -181479.42, 0.01, -0.04, 1.01
63, 0.00, 26629.82, 0.00, 0.00, -110081.65, -131422.47, -181534.25, -187500.02, 0.00, 0.00, 0.00
64, 0.00, 23899.31, 0.00, 0.00, -100481.64, -122029.55, -171716.05, -181981.66, 0.00, 0.00, 0.00
65, 0.00, 23666.43, 0.00, 0.00, -87132.53, -108978.74, -158364.36, -170800.89, 0.00, 0.00, 0.00
66, 0.00, 26515.61, 0.00, 0.00, -96632.24, -118276.30, -167937.08, -179408.94, 0.00, 0.00, 0.00
67, 0.00, 26911.75, 0.00, 0.00, -109750.28, -131103.97, -181102.33, -187500.02, 0.00, 0.00, 0.00
68, 0.00, 24377.48, 0.00, 0.00, -103653.66, -125140.98, -174801.16, -184095.95, 0.00, 0.00, 0.00
69, 0.00, 23343.89, 0.00, 0.00, -88218.89, -110050.77, -159313.75, -171796.38, 0.00, 0.00, 0.00
70, 0.00, 26102.61, 0.00, 0.00, -94089.80, -115799.40, -165260.33, -177266.83, 0.00, 0.00, 0.00
71, 0.00, 27094.40, 0.00, 0.00, -108768.37, -130153.22, -180004.73, -187216.33, 0.01, -0.04, 1.02
72, 0.00, 24884.62, 0.00, 0.00, -106362.91, -127798.28, -177428.75, -185718.05, 0.00, 0.00, 0.00
73, 0.00, 23160.68, 0.00, 0.00, -90029.85, -111826.24, -160997.00, -173429.61, 0.00, 0.00, 0.00
74, 0.00, 25637.09, 0.00, 0.00, -91778.27, -113541.76, -162818.84, -175205.17, 0.00, 0.00, 0.00
75, 0.00, 27177.98, 0.00, 0.00, -107221.74, -128644.32, -178336.72, -186432.30, 0.00, 0.00, 0.00
76, 0.00, 25365.56, 0.00, 0.00, -108530.14, -129922.41, -179516.38, -186853.31, 0.00, 0.00, 0.00
77, 0.00, 23119.50, 0.00, 0.00, -92444.17, -114189.56, -163272.80, -175530.83, 0.00, 0.00, 0.00
78, 0.00, 25100.58, 0.00, 0.00, -89823.73, -111632.23, -160718.61, -173378.91, 0.00, 0.00, 0.00
79, 0.00, 27149.57, 0.00, 0.00, -105177.29, -126647.48, -176148.59, -185284.13, 0.00, 0.00, 0.00
80, 0.00, 25862.62, 0.00, 0.00, -110059.61, -131420.36, -180950.98, -187500.02, 0.00, 0.00, 0.00
81, 0.00, 23259.87, 0.00, 0.00, -95295.56, -116981.13, -165991.78, -177884.67, 0.01, -0.04, 1.01
82, 0.00, 24568.68, 0.00, 0.00, -88479.35, -110321.57, -159229.89, -172069.28, 0.00, 0.00, 0.00
83, 0.00, 27042.32, 0.00, 0.00, -102807.07, -124336.36, -173631.61, -183788.05, 0.00, 0.00, 0.00
84, 0.00, 26292.65, 0.00, 0.00, -110989.82, -132338.66, -181793.86, -187500.02, 0.00, 0.00, 0.00
85, 0.00, 23529.50, 0.00, 0.00, -98447.23, -120072.13, -169035.95, -180297.56, 0.00, 0.00, 0.00
86, 0.00, 24064.60, 0.00, 0.00, -87860.50, -109725.63, -158481.16, -171446.02, 0.00, 0.00, 0.00
87, 0.00, 26813.62, 0.00, 0.00, -100261.02, -121857.66, -170956.95, -182017.06, 0.00, 0.00, 0.00
88, 0.00, 26635.48, 0.00, 0.00, -111265.44, -132619.41, -181979.81, -187500.02, 0.00, 0.00, 0.00
89, 0.00, 23908.74, 0.00, 0.00, -101610.89, -123175.54, -172095.73, -182514.66, 0.00, 0.00, 0.00
90, 0.00, 23625.88, 0.00, 0.00, -87973.85, -109844.65, -158449.88, -171497.31, 0.00, 0.00, 0.00
91, 0.00, 26496.72, 0.00, 0.00, -97512.77, -119178.83, -168065.80, -179912.22, 0.01, -0.03, 1.01
92, 0.00, 26919.05, 0.00, 0.00, -110872.77, -132243.44, -181473.16, -187500.02, 0.00, 0.00, 0.00
93, 0.00, 24357.39, 0.00, 0.00, -104562.04, -126068.73, -174950.05, -184368.11, 0.00, 0.00, 0.00
94, 0.00, 23297.27, 0.00, 0.00, -88749.50, -110605.84, -159082.25, -172149.48, 0.00, 0.00, 0.00
95, 0.00, 26116.45, 0.00, 0.00, -95000.92, -116725.63, -165411.84, -177791.22, 0.00, 0.00, 0.00
96, 0.00, 27144.27, 0.00, 0.00, -110333.82, -131719.97, -180808.42, -187470.41, 0.00, 0.00, 0.00
97, 0.00, 24883.55, 0.00, 0.00, -107596.80, -129040.46, -177885.03, -185898.83, 0.00, 0.00, 0.00
0, 0.00, 26971.20, 0.00, 0.00, 0.00, -124149.12, -172599.47, -182648.23, 0.02, -0.04, 1.01
1, 0.00, 26351.12, 0.00, 0.00, 0.00, -135207.78, -183886.55, -187500.02, 0.00, 0.00, 0.00
2, 0.00, 23737.53, 0.00, 0.00, 0.00, -121083.66, -169151.25, -179948.13, 0.00, 0.00, 0.00
3, 0.00, 24049.89, 0.00, 0.00, 0.00, -106832.66, -154535.13, -168117.67, 0.00, 0.00, 0.00
4, 0.00, 26708.08, 0.00, 0.00, 0.00, -120687.37, -168740.08, -180137.00, 0.00, 0.00, 0.00
5, 0.00, 26642.92, 0.00, 0.00, 0.00, -135018.03, -183404.19, -187500.02, 0.00, 0.00, 0.00
6, 0.00, 24092.74, 0.00, 0.00, 0.00, -124744.95, -172635.34, -182466.25, 0.01, -0.03, 1.01
7, 0.00, 23677.07, 0.00, 0.00, 0.00, -107499.64, -154928.34, -168632.33, 0.00, 0.00, 0.00
8, 0.00, 26397.61, 0.00, 0.00, 0.00, -117527.28, -165220.52, -177649.69, 0.00, 0.00, 0.00
9, 0.00, 26890.02, 0.00, 0.00, 0.00, -134252.42, -182351.66, -187500.02, 0.00, 0.00, 0.00
10, 0.00, 24577.51, 0.00, 0.00, 0.00, -128596.45, -176338.14, -184751.67, 0.00, 0.00, 0.00
11, 0.00, 23416.22, 0.00, 0.00, 0.00, -109538.27, -156720.75, -170421.25, 0.00, 0.00, 0.00
12, 0.00, 25988.60, 0.00, 0.00, 0.00, -114882.84, -162225.27, -175398.33, 0.00, 0.00, 0.00
13, 0.00, 27012.78, 0.00, 0.00, 0.00, -132836.44, -180621.38, -187221.27, 0.00, 0.00, 0.00
14, 0.00, 25048.10, 0.00, 0.00, 0.00, -131608.23, -179179.84, -186361.69, 0.00, 0.00, 0.00
15, 0.00, 23285.78, 0.00, 0.00, 0.00, -112338.88, -159301.80, -172856.27, 0.00, 0.00, 0.00
16, 0.00, 25507.03, 0.00, 0.00, 0.00, -112475.05, -159476.56, -173215.38, 0.01, -0.04, 1.02
17, 0.00, 27059.04, 0.00, 0.00, 0.00, -130558.91, -178009.75, -186208.42, 0.00, 0.00, 0.00
18, 0.00, 25480.00, 0.00, 0.00, 0.00, -133603.17, -180988.27, -187372.41, 0.00, 0.00, 0.00
19, 0.00, 23323.46, 0.00, 0.00, 0.00, -115659.61, -162427.03, -175663.84, 0.00, 0.00, 0.00
20, 0.00, 25016.47, 0.00, 0.00, 0.00, -110829.34, -157511.19, -171624.38, 0.00, 0.00, 0.00
21, 0.00, 26981.75, 0.00, 0.00, 0.00, -127775.11, -174879.75, -184795.67, 0.00, 0.00, 0.00
22, 0.00, 25914.57, 0.00, 0.00, 0.00, -134778.73, -181969.91, -187500.02, 0.00, 0.00, 0.00
23, 0.00, 23532.45, 0.00, 0.00, 0.00, -119876.91, -166500.73, -179133.83, 0.00, 0.00, 0.00
24, 0.00, 24543.09, 0.00, 0.00, 0.00, -110642.05, -157067.47, -171406.67, 0.00, 0.00, 0.00
25, 0.00, 26833.36, 0.00, 0.00, 0.00, -124862.18, -171647.52, -183108.09, 0.00, 0.00, 0.00
26, 0.00, 26274.12, 0.00, 0.00, 0.00, -135110.72, -182100.86, -187500.02, 0.01, -0.04, 1.02
27, 0.00, 23805.01, 0.00, 0.00, 0.00, -123342.63, -169828.92, -181573.27, 0.00, 0.00, 0.00
28, 0.00, 24083.20, 0.00, 0.00, 0.00, -110459.32, -156641.06, -171093.36, 0.00, 0.00, 0.00
29, 0.00, 26601.06, 0.00, 0.00, 0.00, -122129.39, -168614.83, -181089.45, 0.00, 0.00, 0.00
30, 0.00, 26555.17, 0.00, 0.00, 0.00, -135195.66, -181984.59, -187500.02, 0.00, 0.00, 0.00
31, 0.00, 24151.24, 0.00, 0.00, 0.00, -126699.74, -173063.06, -183655.14, 0.00, 0.00, 0.00
32, 0.00, 23714.42, 0.00, 0.00, 0.00, -110957.68, -156915.67, -171401.80, 0.00, 0.00, 0.00
33, 0.00, 26295.91, 0.00, 0.00, 0.00, -119217.36, -165402.81, -178727.72, 0.00, 0.00, 0.00
34, 0.00, 26803.05, 0.00, 0.00, 0.00, -134581.77, -181141.77, -187500.02, 0.00, 0.00, 0.00
35, 0.00, 24589.49, 0.00, 0.00, 0.00, -129975.99, -176219.11, -185426.16, 0.00, 0.00, 0.00
36, 0.00, 23459.68, 0.00, 0.00, 0.00, -112488.86, -158238.23, -172653.86, 0.01, -0.03, 1.02
37, 0.00, 25924.36, 0.00, 0.00, 0.00, -116700.71, -162588.50, -176539.25, 0.00, 0.00, 0.00
38, 0.00, 26942.70, 0.00, 0.00, 0.00, -133395.92, -179703.02, -187277.27, 0.00, 0.00, 0.00
39, 0.00, 25049.62, 0.00, 0.00, 0.00, -132850.81, -178972.92, -186764.23, 0.00, 0.00, 0.00
40, 0.00, 23334.68, 0.00, 0.00, 0.00, -114943.64, -160504.63, -174677.06, 0.00, 0.00, 0.00
41, 0.00, 25457.88, 0.00, 0.00, 0.00, -114506.35, -160096.55, -174509.16, 0.00, 0.00, 0.00
42, 0.00, 26992.70, 0.00, 0.00, 0.00, -131558.58, -177581.23, -186395.03, 0.00, 0.00, 0.00
43, 0.00, 25494.80, 0.00, 0.00, 0.00, -134966.36, -180938.75, -187500.02, 0.00, 0.00, 0.00
44, 0.00, 23344.50, 0.00, 0.00, 0.00, -117903.46, -163290.66, -177004.00, 0.00, 0.00, 0.00
45, 0.00, 24978.97, 0.00, 0.00, 0.00, -112741.01, -158043.09, -172774.44, 0.01, -0.03, 1.02
46, 0.00, 26964.21, 0.00, 0.00, 0.00, -129167.98, -174887.89, -185097.19, 0.00, 0.00, 0.00
47, 0.00, 25911.01, 0.00, 0.00, 0.00, -136395.06, -182206.81, -187500.02, 0.00, 0.00, 0.00
48, 0.00, 23500.60, 0.00, 0.00, 0.00, -121277.56, -166519.11, -179474.17, 0.00, 0.00, 0.00
49, 0.00, 24495.07, 0.00, 0.00, 0.00, -111733.10, -156774.66, -171700.42, 0.00, 0.00, 0.00
50, 0.00, 26828.98, 0.00, 0.00, 0.00, -126536.15, -171956.19, -183460.30, 0.00, 0.00, 0.00
51, 0.00, 26280.98, 0.00, 0.00, 0.00, -137163.42, -182797.59, -187500.02, 0.00, 0.00, 0.00
52, 0.00, 23782.39, 0.00, 0.00, 0.00, -124899.24, -170008.14, -181885.28, 0.00, 0.00, 0.00
53, 0.00, 24072.67, 0.00, 0.00, 0.00, -111582.38, -156371.13, -171417.48, 0.00, 0.00, 0.00
54, 0.00, 26626.02, 0.00, 0.00, 0.00, -123754.43, -168858.81, -181527.11, 0.00, 0.00, 0.00
55, 0.00, 26581.95, 0.00, 0.00, 0.00, -137249.97, -182667.14, -187500.02, 0.01, -0.03, 1.01
56, 0.00, 24148.06, 0.00, 0.00, 0.00, -128566.49, -173542.77, -184050.56, 0.00, 0.00, 0.00
57, 0.00, 23681.96, 0.00, 0.00, 0.00, -112383.98, -156928.11, -171999.58, 0.00, 0.00, 0.00
58, 0.00, 26308.18, 0.00, 0.00, 0.00, -120973.98, -165756.19, -179399.59, 0.00, 0.00, 0.00
59, 0.00, 26797.04, 0.00, 0.00, 0.00, -136586.97, -181752.98, -187500.02, 0.00, 0.00, 0.00
60, 0.00, 24580.82, 0.00, 0.00, 0.00, -131881.56, -176723.14, -185767.33, 0.00, 0.00, 0.00
61, 0.00, 23433.41, 0.00, 0.00, 0.00, -114045.57, -158372.70, -173331.77, 0.00, 0.00, 0.00
62, 0.00, 25914.68, 0.00, 0.00, 0.00, -118248.23, -162714.84, -177128.22, 0.00, 0.00, 0.00
63, 0.00, 26957.59, 0.00, 0.00, 0.00, -135156.88, -180050.14, -187484.91, 0.00, 0.00, 0.00
64, 0.00, 25020.90, 0.00, 0.00, 0.00, -134545.05, -179255.70, -186979.42, 0.00, 0.00, 0.00
65, 0.00, 23306.19, 0.00, 0.00, 0.00, -116400.17, -160545.78, -175224.50, 0.01, -0.03, 1.01
66, 0.00, 25443.71, 0.00, 0.00, 0.00, -115850.70, -160026.06, -174972.63, 0.00, 0.00, 0.00
67, 0.00, 26999.65, 0.00, 0.00, 0.00, -133100.47, -177713.48, -186594.95, 0.00, 0.00, 0.00
68, 0.00, 25508.50, 0.00, 0.00, 0.00, -136663.72, -181234.23, -187500.02, 0.00, 0.00, 0.00
69, 0.00, 23347.16, 0.00, 0.00, 0.00, -119492.40, -163466.64, -177599.73, 0.00, 0.00, 0.00
70, 0.00, 24972.69, 0.00, 0.00, 0.00, -114235.45, -158120.17, -173420.56, 0.00, 0.00, 0.00
71, 0.00, 26958.46, 0.00, 0.00, 0.00, -130790.94, -175096.39, -185425.11, 0.00, 0.00, 0.00
72, 0.00, 25930.35, 0.00, 0.00, 0.00, -138145.25, -182552.95, -187500.02, 0.00, 0.00, 0.00
73, 0.00, 23515.08, 0.00, 0.00, 0.00, -123042.82, -166873.14, -180116.61, 0.00, 0.00, 0.00
74, 0.00, 24479.76, 0.00, 0.00, 0.00, -113321.75, -156943.63, -172460.41, 0.01, -0.03, 1.01
75, 0.00, 26822.16, 0.00, 0.00, 0.00, -128096.44, -172098.17, -183858.78, 0.00, 0.00, 0.00
76, 0.00, 26285.23, 0.00, 0.00, 0.00, -138780.84, -183001.80, -187500.02, 0.00, 0.00, 0.00
77, 0.00, 23789.63, 0.00, 0.00, 0.00, -126643.77, -170343.36, -182443.81, 0.00, 0.00, 0.00
78, 0.00, 24057.43, 0.00, 0.00, 0.00, -113226.76, -156606.02, -172231.50, 0.00, 0.00, 0.00
79, 0.00, 26607.47, 0.00, 0.00, 0.00, -125195.40, -168889.97, -181951.06, 0.00, 0.00, 0.00
80, 0.00, 26574.64, 0.00, 0.00, 0.00, -138638.23, -182647.75, -187500.02, 0.00, 0.00, 0.00
81, 0.00, 24162.77, 0.00, 0.00, 0.00, -130137.93, -173716.03, -184469.19, 0.00, 0.00, 0.00
82, 0.00, 23678.32, 0.00, 0.00, 0.00, -114062.36, -157216.59, -172841.58, 0.00, 0.00, 0.00
83, 0.00, 26283.33, 0.00, 0.00, 0.00, -122385.88, -165775.97, -179882.31, 0.00, 0.00, 0.00
84, 0.00, 26799.58, 0.00, 0.00, 0.00, -137862.41, -181637.84, -187500.02, 0.01, -0.03, 1.02
85, 0.00, 24605.80, 0.00, 0.00, 0.00, -133374.48, -176841.00, -186080.55, 0.00, 0.00, 0.00
86, 0.00, 23444.63, 0.00, 0.00, 0.00, -115769.00, -158730.91, -174193.22, 0.00, 0.00, 0.00
87, 0.00, 25899.66, 0.00, 0.00, 0.00, -119797.68, -162900.42, -177777.44, 0.00, 0.00, 0.00
88, 0.00, 26949.07, 0.00, 0.00, 0.00, -136496.59, -180026.16, -187500.02, 0.00, 0.00, 0.00
89, 0.00, 25055.39, 0.00, 0.00, 0.00, -136087.16, -179442.06, -187220.97, 0.00, 0.00, 0.00
90, 0.00, 23316.15, 0.00, 0.00, 0.00, -118175.50, -160971.47, -176072.59, 0.00, 0.00, 0.00
91, 0.00, 25444.46, 0.00, 0.00, 0.00, -117500.84, -160325.58, -175737.19, 0.00, 0.00, 0.00
92, 0.00, 26987.76, 0.00, 0.00, 0.00, -134545.41, -177805.97, -186821.86, 0.00, 0.00, 0.00
93, 0.00, 25503.88, 0.00, 0.00, 0.00, -138116.70, -181338.80, -187500.02, 0.00, 0.00, 0.00
94, 0.00, 23332.87, 0.00, 0.00, 0.00, -121126.94, -163761.92, -178263.03, 0.02, -0.03, 1.02
95, 0.00, 24942.49, 0.00, 0.00, 0.00, -115700.72, -158246.83, -174028.38, 0.00, 0.00, 0.00
96, 0.00, 26969.23, 0.00, 0.00, 0.00, -132064.66, -175032.13, -185611.25, 0.00, 0.00, 0.00
97, 0.00, 25931.33, 0.00, 0.00, 0.00, -139481.58, -182554.27, -187500.02, 0.00, 0.00, 0.00
98, 0.00, 23509.03, 0.00, 0.00, 0.00, -124529.21, -167033.33, -180596.81, 0.00, 0.00, 0.00
99, 0.00, 24478.82, 0.00, 0.00, 0.00, -114796.97, -157095.97, -173088.78, 0.00, 0.00, 0.00
100, 0.00, 26831.86, 0.00, 0.00, 0.00, -129519.28, -172198.28, -184174.09, 0.00, 0.00, 0.00
101, 0.00, 26319.71, 0.00, 0.00, 0.00, -140328.58, -183235.39, -187500.02, 0.00, 0.00, 0.00
102, 0.00, 23809.66, 0.00, 0.00, 0.00, -128341.68, -170729.14, -182920.61, 0.00, 0.00, 0.00
103, 0.00, 24037.47, 0.00, 0.00, 0.00, -114767.84, -156825.64, -172921.05, 0.00, 0.00, 0.00
104, 0.00, 26599.27, 0.00, 0.00, 0.00, -126766.82, -169144.78, -182399.95, 0.01, -0.04, 1.01
105, 0.00, 26593.81, 0.00, 0.00, 0.00, -140322.25, -183023.98, -187500.02, 0.00, 0.00, 0.00
106, 0.00, 24175.33, 0.00, 0.00, 0.00, -131808.61, -174079.00, -184807.81, 0.00, 0.00, 0.00
107, 0.00, 23659.19, 0.00, 0.00, 0.00, -115444.05, -157280.81, -173347.52, 0.00, 0.00, 0.00
108, 0.00, 26257.49, 0.00, 0.00, 0.00, -123640.59, -165711.05, -180140.33, 0.00, 0.00, 0.00
109, 0.00, 26816.33, 0.00, 0.00, 0.00, -139363.30, -181831.81, -187500.02, 0.00, 0.00, 0.00
110, 0.00, 24591.61, 0.00, 0.00, 0.00, -134808.19, -176969.73, -186271.86, 0.00, 0.00, 0.00
111, 0.00, 23427.04, 0.00, 0.00, 0.00, -116994.30, -158645.77, -174536.45, 0.00, 0.00, 0.00
112, 0.00, 25874.42, 0.00, 0.00, 0.00, -120946.47, -162735.88, -177991.47, 0.00, 0.00, 0.00
113, 0.00, 26968.54, 0.00, 0.00, 0.00, -137929.44, -180151.97, -187500.02, 0.01, -0.03, 1.01
114, 0.00, 25091.49, 0.00, 0.00, 0.00, -137721.77, -179777.06, -187419.55, 0.00, 0.00, 0.00
115, 0.00, 23317.85, 0.00, 0.00, 0.00, -119641.44, -161126.95, -176577.30, 0.00, 0.00, 0.00
116, 0.00, 25442.39, 0.00, 0.00, 0.00, -118833.36, -160346.53, -176164.63, 0.00, 0.00, 0.00
117, 0.00, 26996.75, 0.00, 0.00, 0.00, -136051.55, -178010.36, -187007.09, 0.00, 0.00, 0.00
118, 0.00, 25523.63, 0.00, 0.00, 0.00, -139846.08, -181776.94, -187500.02, 0.00, 0.00, 0.00
119, 0.00, 23353.24, 0.00, 0.00, 0.00, -122772.56, -164112.14, -178844.39, 0.00, 0.00, 0.00
120, 0.00, 24936.03, 0.00, 0.00, 0.00, -117124.45, -158369.48, -174569.55, 0.00, 0.00, 0.00
121, 0.00, 26969.48, 0.00, 0.00, 0.00, -133535.64, -175202.31, -185848.94, 0.00, 0.00, 0.00
122, 0.00, 25943.87, 0.00, 0.00, 0.00, -141136.17, -182918.48, -187500.02, 0.00, 0.00, 0.00
123, 0.00, 23518.57, 0.00, 0.00, 0.00, -126194.23, -167403.11, -181122.38, 0.01, -0.03, 1.01
124, 0.00, 24438.48, 0.00, 0.00, 0.00, -116173.27, -157167.27, -173599.58, 0.00, 0.00, 0.00
125, 0.00, 26815.21, 0.00, 0.00, 0.00, -130766.41, -172140.70, -184354.09, 0.00, 0.00, 0.00
126, 0.00, 26323.63, 0.00, 0.00, 0.00, -141732.58, -183339.38, -187500.02, 0.00, 0.00, 0.00
127, 0.00, 23806.55, 0.00, 0.00, 0.00, -129837.99, -170930.20, -183305.70, 0.00, 0.00, 0.00
128, 0.00, 24006.58, 0.00, 0.00, 0.00, -116142.72, -156905.42, -173426.44, 0.00, 0.00, 0.00
129, 0.00, 26582.57, 0.00, 0.00, 0.00, -127869.12, -168947.88, -182552.70, 0.00, 0.00, 0.00
130, 0.00, 26609.59, 0.00, 0.00, 0.00, -141567.23, -182970.03, -187500.02, 0.00, 0.00, 0.00
131, 0.00, 24199.90, 0.00, 0.00, 0.00, -133354.58, -174333.45, -185162.27, 0.00, 0.00, 0.00
132, 0.00, 23670.34, 0.00, 0.00, 0.00, -117052.98, -157601.50, -174068.27, 0.00, 0.00, 0.00
133, 0.00, 26269.94, 0.00, 0.00, 0.00, -125048.98, -165827.19, -180578.31, 0.02, -0.04, 1.01
134, 0.00, 26828.55, 0.00, 0.00, 0.00, -140720.34, -181894.36, -187500.02, 0.00, 0.00, 0.00
135, 0.00, 24638.15, 0.00, 0.00, 0.00, -136567.05, -177445.53, -186629.92, 0.00, 0.00, 0.00
136, 0.00, 23427.47, 0.00, 0.00, 0.00, -118867.16, -159234.77, -175462.23, 0.00, 0.00, 0.00
137, 0.00, 25855.25, 0.00, 0.00, 0.00, -122441.13, -162945.23, -178552.84, 0.00, 0.00, 0.00
138, 0.00, 26953.03, 0.00, 0.00, 0.00, -139219.59, -180157.84, -187500.02, 0.00, 0.00, 0.00
139, 0.00, 25099.31, 0.00, 0.00, 0.00, -139141.89, -179917.39, -187500.02, 0.00, 0.00, 0.00
140, 0.00, 23325.54, 0.00, 0.00, 0.00, -121307.02, -161518.44, -177288.11, 0.00, 0.00, 0.00
141, 0.00, 25409.22, 0.00, 0.00, 0.00, -120244.67, -160478.81, -176679.63, 0.00, 0.00, 0.00
142, 0.00, 26999.48, 0.00, 0.00, 0.00, -137192.88, -177866.22, -187125.69, 0.00, 0.00, 0.00
143, 0.00, 25550.10, 0.00, 0.00, 0.00, -141116.86, -181773.50, -187500.02, 0.01, -0.03, 1.01
144, 0.00, 23374.96, 0.00, 0.00, 0.00, -124365.95, -164445.89, -179452.14, 0.00, 0.00, 0.00
145, 0.00, 24911.20, 0.00, 0.00, 0.00, -118590.69, -158575.63, -175159.19, 0.00, 0.00, 0.00
146, 0.00, 26941.63, 0.00, 0.00, 0.00, -134698.11, -175100.56, -186014.70, 0.00, 0.00, 0.00
147, 0.00, 25969.17, 0.00, 0.00, 0.00, -142327.80, -182844.39, -187500.02, 0.00, 0.00, 0.00
148, 0.00, 23540.59, 0.00, 0.00, 0.00, -127741.47, -167695.28, -181642.39, 0.00, 0.00, 0.00
149, 0.00, 24452.38, 0.00, 0.00, 0.00, -117720.29, -157461.31, -174265.53, 0.00, 0.00, 0.00
150, 0.00, 26800.95, 0.00, 0.00, 0.00, -131997.94, -172115.38, -184595.09, 0.00, 0.00, 0.00
151, 0.00, 26328.19, 0.00, 0.00, 0.00, -142929.92, -183280.52, -187500.02, 0.00, 0.00, 0.00
152, 0.00, 23841.93, 0.00, 0.00, 0.00, -131380.00, -171226.34, -183734.91, 0.01, -0.03, 1.02
153, 0.00, 24019.01, 0.00, 0.00, 0.00, -117745.88, -157267.34, -174139.53, 0.00, 0.00, 0.00
154, 0.00, 26579.71, 0.00, 0.00, 0.00, -129216.48, -169050.06, -182897.05, 0.00, 0.00, 0.00
155, 0.00, 26603.98, 0.00, 0.00, 0.00, -142799.23, -182964.36, -187500.02, 0.00, 0.00, 0.00
156, 0.00, 24226.50, 0.00, 0.00, 0.00, -134785.02, -174538.19, -185460.52, 0.00, 0.00, 0.00
157, 0.00, 23677.63, 0.00, 0.00, 0.00, -118551.46, -157872.80, -174663.14, 0.00, 0.00, 0.00
158, 0.00, 26253.49, 0.00, 0.00, 0.00, -126332.93, -165882.95, -180898.94, 0.00, 0.00, 0.00
159, 0.00, 26828.08, 0.00, 0.00, 0.00, -141915.67, -181858.48, -187500.02, 0.00, 0.00, 0.00
160, 0.00, 24648.70, 0.00, 0.00, 0.00, -137839.72, -177487.73, -186796.41, 0.00, 0.00, 0.00
161, 0.00, 23433.05, 0.00, 0.00, 0.00, -120209.87, -159348.47, -175889.20, 0.00, 0.00, 0.00
162, 0.00, 25855.11, 0.00, 0.00, 0.00, -123693.25, -162964.66, -178867.17, 0.02, -0.03, 1.01
163, 0.00, 26953.52, 0.00, 0.00, 0.00, -140421.97, -180125.69, -187500.02, 0.00, 0.00, 0.00
164, 0.00, 25111.83, 0.00, 0.00, 0.00, -140457.59, -180001.83, -187500.02, 0.00, 0.00, 0.00
165, 0.00, 23338.66, 0.00, 0.00, 0.00, -122692.90, -161677.81, -177717.91, 0.00, 0.00, 0.00
166, 0.00, 25415.10, 0.00, 0.00, 0.00, -121553.05, -160561.36, -177065.28, 0.00, 0.00, 0.00
167, 0.00, 26996.64, 0.00, 0.00, 0.00, -138479.25, -177927.59, -187268.36, 0.00, 0.00, 0.00
