%OpenBCI Raw EEG Data
%
%Sample Rate = 250.0 Hz
%First Column = SampleIndex
%Other Columns = EEG data in microvolts followed by Accel Data (in G) interleaved with Aux Data
0, -181153.02, -170417.41, -180993.17, -181014.28, -156209.59, -40635.78, -181334.63, -181228.30, 0.14, 0.34, 0.36
1, -181243.41, -170597.52, -181001.27, -180985.06, -156354.78, -40752.70, -181360.13, -181237.84, 0.14, 0.34, 0.36
2, -181153.44, -170733.09, -181006.64, -180850.17, -156446.25, -40813.55, -181384.95, -181221.02, 0.29, 0.69, 0.72
3, -181035.67, -170843.23, -181003.34, -180821.25, -156511.78, -40848.62, -181378.34, -181212.45, 0.29, 0.69, 0.72
4, -180967.16, -171011.42, -180963.88, -180984.13, -156640.89, -40949.89, -181303.64, -181232.55, 0.29, 0.69, 0.72
5, -180897.22, -171209.75, -180976.34, -180988.70, -156803.30, -41083.53, -181329.06, -181211.98, 0.29, 0.69, 0.72
6, -180801.89, -171327.17, -180983.92, -180854.48, -156892.16, -41144.55, -181371.50, -181206.91, 0.29, 0.69, 0.72
7, -180867.31, -171398.63, -180983.66, -180771.78, -156946.72, -41170.19, -181369.02, -181192.59, 0.29, 0.70, 0.73
8, -181019.06, -171505.89, -180952.11, -180921.61, -157041.03, -41234.68, -181308.45, -181200.25, 0.29, 0.70, 0.73
9, -181192.11, -171691.03, -180946.84, -180985.48, -157199.88, -41363.33, -181286.50, -181203.34, 0.29, 0.70, 0.73
10, -181138.27, -171844.61, -180956.97, -180879.19, -157308.88, -41442.28, -181333.70, -181179.02, 0.29, 0.70, 0.73
11, -181030.17, -171966.84, -180950.08, -180745.88, -157384.44, -41487.61, -181335.16, -181167.97, 0.29, 0.70, 0.73
12, -180933.44, -172103.78, -180934.53, -180832.38, -157478.67, -41552.65, -181297.25, -181189.58, 0.29, 0.69, 0.73
13, -180882.78, -172307.16, -180921.73, -180964.91, -157644.66, -41689.11, -181259.66, -181180.59, 0.29, 0.69, 0.73
14, -180766.78, -172457.81, -180939.89, -180877.53, -157761.73, -41777.24, -181315.98, -181154.16, 0.29, 0.69, 0.73
15, -180789.91, -172541.42, -180939.94, -180732.11, -157825.02, -41810.43, -181327.98, -181150.36, 0.29, 0.69, 0.73
16, -180900.73, -172625.80, -180918.44, -180795.34, -157894.30, -41850.82, -181290.34, -181145.50, 0.29, 0.69, 0.73
17, -181109.86, -172794.89, -180893.11, -180929.83, -158045.31, -41972.82, -181236.72, -181151.97, 0.29, 0.69, 0.73
18, -181127.53, -172965.59, -180908.58, -180860.39, -158175.05, -42073.94, -181277.36, -181142.86, 0.28, 0.69, 0.73
19, -181023.67, -173094.16, -180914.59, -180723.08, -158254.56, -42125.19, -181298.22, -181128.31, 0.28, 0.69, 0.73
20, -180912.23, -173211.97, -180902.61, -180763.48, -158326.08, -42168.40, -181271.05, -181130.38, 0.28, 0.69, 0.73
21, -180863.17, -173405.66, -180876.20, -180913.27, -158480.13, -42293.99, -181211.47, -181123.48, 0.28, 0.69, 0.73
22, -180760.11, -173582.61, -180892.64, -180858.89, -158618.08, -42405.35, -181259.28, -181121.09, 0.28, 0.69, 0.73
23, -180723.69, -173678.72, -180901.11, -180715.88, -158686.47, -42447.61, -181294.64, -181111.39, 0.29, 0.69, 0.72
24, -180807.55, -173746.73, -180890.06, -180737.23, -158732.94, -42467.17, -181272.13, -181107.70, 0.29, 0.69, 0.72
25, -181008.58, -173897.17, -180854.44, -180874.94, -158864.22, -42569.86, -181192.22, -181111.53, 0.29, 0.69, 0.72
26, -181099.61, -174087.94, -180861.19, -180841.00, -159016.42, -42693.48, -181215.13, -181102.36, 0.29, 0.69, 0.72
27, -181007.97, -174227.17, -180872.08, -180707.92, -159104.83, -42753.54, -181256.80, -181089.89, 0.29, 0.69, 0.72
28, -180886.89, -174336.38, -180871.25, -180698.25, -159164.52, -42784.64, -181251.88, -181084.70, 0.28, 0.70, 0.72
29, -180814.75, -174503.44, -180832.89, -180853.66, -159288.22, -42879.50, -181180.64, -181102.13, 0.28, 0.70, 0.72
30, -180745.14, -174708.30, -180839.59, -180852.63, -159454.14, -43016.22, -181188.80, -181081.75, 0.28, 0.70, 0.72
31, -180665.25, -174829.34, -180852.52, -180720.27, -159545.19, -43078.89, -181237.14, -181071.78, 0.28, 0.70, 0.72
32, -180731.94, -174900.36, -180852.52, -180639.11, -159593.33, -43100.22, -181232.78, -181059.36, 0.28, 0.70, 0.72
33, -180881.59, -175011.84, -180820.75, -180786.42, -159684.30, -43163.41, -181174.50, -181058.98, 0.29, 0.70, 0.72
34, -181059.00, -175202.73, -180815.34, -180847.00, -159846.63, -43295.91, -181161.83, -181050.67, 0.29, 0.70, 0.72
35, -181006.30, -175358.91, -180826.80, -180738.55, -159955.27, -43373.92, -181206.41, -181050.38, 0.29, 0.70, 0.72
36, -180893.91, -175481.06, -180830.39, -180619.67, -160022.77, -43413.75, -181210.55, -181042.64, 0.29, 0.70, 0.72
37, -180795.63, -175619.42, -180802.63, -180732.11, -160110.69, -43474.79, -181159.23, -181031.38, 0.29, 0.70, 0.72
38, -180744.56, -175827.48, -180786.98, -180833.23, -160276.63, -43611.70, -181127.94, -181028.22, 0.29, 0.70, 0.72
39, -180634.86, -175977.45, -180808.66, -180735.94, -160389.11, -43697.17, -181188.47, -181029.92, 0.29, 0.70, 0.72
40, -180668.41, -176056.28, -180813.56, -180600.13, -160441.69, -43723.83, -181206.34, -181019.38, 0.29, 0.70, 0.72
41, -180779.09, -176136.64, -180789.23, -180679.45, -160500.55, -43755.37, -181162.38, -181023.27, 0.29, 0.70, 0.72
42, -180988.59, -176314.72, -180761.34, -180804.73, -160654.23, -43880.54, -181100.48, -181016.05, 0.29, 0.70, 0.72
43, -180995.17, -176493.41, -180776.59, -180736.52, -160788.36, -43986.67, -181144.97, -181007.38, 0.29, 0.70, 0.71
44, -180890.47, -176624.42, -180783.08, -180598.11, -160866.19, -44037.23, -181173.64, -180998.56, 0.29, 0.70, 0.71
45, -180773.81, -176742.55, -180770.83, -180631.91, -160931.53, -44074.55, -181151.36, -180997.22, 0.29, 0.70, 0.71
46, -180723.66, -176939.73, -180738.86, -180778.00, -161082.72, -44196.71, -181073.52, -181007.33, 0.29, 0.70, 0.71
47, -180630.86, -177130.39, -180758.08, -180733.31, -161230.56, -44314.57, -181116.92, -180984.53, 0.29, 0.70, 0.71
48, -180572.05, -177233.41, -180770.44, -180585.53, -161300.80, -44354.62, -181156.20, -180980.38, 0.29, 0.70, 0.71
49, -180648.95, -177303.11, -180755.42, -180583.58, -161348.08, -44371.27, -181133.61, -180971.66, 0.29, 0.70, 0.72
50, -180842.86, -177448.81, -180717.53, -180739.66, -161474.55, -44467.63, -181057.27, -180962.59, 0.29, 0.70, 0.72
51, -180964.17, -177641.89, -180725.94, -180724.17, -161628.30, -44593.56, -181083.41, -180961.42, 0.29, 0.70, 0.72
52, -180880.34, -177789.03, -180735.66, -180591.73, -161720.81, -44657.60, -181118.50, -180956.77, 0.29, 0.70, 0.72
53, -180759.56, -177904.97, -180733.72, -180552.83, -161782.08, -44689.54, -181111.39, -180945.13, 0.29, 0.70, 0.72
54, -180684.09, -178072.13, -180701.13, -180710.14, -161900.70, -44780.64, -181055.77, -180946.69, 0.29, 0.69, 0.72
55, -180621.09, -178283.36, -180703.08, -180725.61, -162067.06, -44919.09, -181049.70, -180936.00, 0.29, 0.69, 0.72
56, -180525.52, -178412.59, -180712.55, -180595.81, -162158.53, -44982.75, -181097.14, -180933.34, 0.29, 0.69, 0.72
57, -180586.75, -178489.31, -180714.52, -180494.13, -162206.83, -45003.80, -181106.52, -180917.86, 0.29, 0.69, 0.72
58, -180730.91, -178596.88, -180680.61, -180626.61, -162291.34, -45059.57, -181042.27, -180930.19, 0.29, 0.69, 0.72
59, -180915.27, -178794.81, -180671.69, -180702.36, -162454.84, -45194.82, -181010.83, -180924.89, 0.29, 0.69, 0.72
60, -180869.73, -178961.72, -180688.59, -180598.13, -162569.03, -45279.87, -181061.55, -180915.84, 0.29, 0.69, 0.72
61, -180753.61, -179083.27, -180697.73, -180483.64, -162633.02, -45316.30, -181082.86, -180902.52, 0.29, 0.69, 0.72
62, -180646.14, -179214.81, -180672.97, -180594.98, -162711.23, -45366.42, -181032.22, -180919.11, 0.29, 0.69, 0.72
63, -180586.33, -179425.56, -180652.88, -180707.56, -162876.19, -45502.45, -180984.73, -180927.38, 0.29, 0.69, 0.72
64, -180496.83, -179583.94, -180668.45, -180620.55, -162993.94, -45593.15, -181043.48, -180894.30, 0.28, 0.69, 0.73
65, -180557.05, -179674.94, -180664.58, -180467.63, -163055.33, -45625.16, -181055.45, -180879.66, 0.28, 0.69, 0.73
66, -180669.75, -179759.89, -180650.84, -180492.94, -163112.86, -45655.80, -181027.84, -180884.86, 0.28, 0.69, 0.73
67, -180868.28, -179939.11, -180623.88, -180656.38, -163260.31, -45777.24, -180963.03, -180873.42, 0.28, 0.69, 0.73
68, -180866.75, -180128.14, -180638.55, -180612.27, -163397.59, -45886.27, -181004.23, -180864.08, 0.28, 0.69, 0.73
69, -180761.95, -180263.48, -180641.41, -180468.33, -163474.33, -45933.93, -181037.48, -180860.63, 0.29, 0.69, 0.72
70, -180642.25, -180372.36, -180635.92, -180467.13, -163536.13, -45966.52, -181018.55, -180860.91, 0.29, 0.69, 0.72
71, -180588.00, -180462.77, -180603.14, -180645.25, -163681.39, -46082.70, -180948.70, -180880.25, 0.29, 0.69, 0.72
72, -180517.33, -180538.20, -180613.80, -180641.03, -163843.75, -46215.85, -180962.42, -180856.03, 0.29, 0.69, 0.72
73, -180453.94, -180556.31, -180620.28, -180509.53, -163932.92, -46277.21, -181009.98, -180841.97, 0.29, 0.69, 0.72
74, -180554.30, -180542.13, -180617.27, -180409.13, -163993.45, -46309.84, -181005.53, -180833.97, 0.28, 0.68, 0.72
75, -180759.48, -180561.31, -180588.83, -180569.77, -164114.28, -46402.69, -180937.72, -180861.19, 0.28, 0.68, 0.72
76, -180867.41, -180572.67, -180585.89, -180643.23, -164292.09, -46549.68, -180926.17, -180845.75, 0.28, 0.68, 0.72
77, -180801.22, -180587.31, -180598.31, -180546.30, -164410.63, -46637.38, -180968.02, -180828.67, 0.28, 0.68, 0.72
78, -180708.28, -180583.58, -180592.75, -180418.69, -164500.23, -46696.70, -180974.36, -180819.39, 0.28, 0.68, 0.72
79, -180643.84, -180562.08, -180574.55, -180510.73, -164628.55, -46796.82, -180928.38, -180827.44, 0.28, 0.68, 0.72
80, -180626.92, -180549.92, -180568.66, -180635.34, -164817.16, -46955.18, -180909.25, -180817.22, 0.29, 0.69, 0.72
81, -180562.33, -180554.88, -180583.89, -180554.97, -164947.47, -47054.91, -180946.55, -180813.80, 0.29, 0.69, 0.72
82, -180425.55, -180555.06, -180582.55, -180419.92, -165035.73, -47114.86, -180965.55, -180800.95, 0.29, 0.69, 0.72
83, -180451.39, -180551.97, -180562.45, -180452.83, -165132.17, -47183.10, -180919.42, -180810.67, 0.29, 0.69, 0.72
84, -180705.58, -180531.84, -180550.39, -180595.36, -165305.03, -47326.18, -180886.45, -180804.17, 0.29, 0.69, 0.72
85, -180769.44, -180552.92, -180565.45, -180528.70, -165440.88, -47429.84, -180933.47, -180799.36, 0.29, 0.69, 0.72
86, -180680.34, -180557.61, -180568.11, -180399.61, -165532.86, -47491.33, -180946.50, -180789.03, 0.29, 0.69, 0.72
87, -180590.22, -180537.31, -180552.73, -180452.27, -165630.31, -47558.79, -180917.61, -180795.00, 0.29, 0.69, 0.72
88, -180568.25, -180510.88, -180534.61, -180598.20, -165813.30, -47711.52, -180873.13, -180827.55, 0.29, 0.69, 0.72
89, -180517.78, -180518.61, -180546.75, -180552.84, -165971.84, -47838.25, -180896.27, -180799.44, 0.29, 0.69, 0.72
90, -180395.77, -180545.00, -180550.50, -180420.80, -166063.78, -47899.74, -180933.23, -180777.14, 0.29, 0.70, 0.73
91, -180454.17, -180534.50, -180544.36, -180365.81, -166133.78, -47942.23, -180923.47, -180775.61, 0.29, 0.70, 0.73
92, -180690.41, -180497.02, -180518.30, -180543.50, -166289.42, -48069.04, -180856.55, -180785.91, 0.29, 0.70, 0.73
93, -180770.22, -180511.72, -180532.06, -180545.52, -166453.95, -48202.74, -180878.95, -180767.78, 0.29, 0.70, 0.73
94, -180689.80, -180526.73, -180533.80, -180424.23, -166555.14, -48272.32, -180916.47, -180765.91, 0.29, 0.70, 0.73
95, -180593.84, -180514.84, -180531.44, -180352.67, -166641.33, -48329.03, -180905.09, -180759.16, 0.28, 0.70, 0.72
96, -180554.39, -180481.75, -180500.44, -180527.69, -166800.69, -48459.12, -180843.80, -180756.86, 0.28, 0.70, 0.72
97, -180533.45, -180485.84, -180511.39, -180556.14, -166980.95, -48607.40, -180857.09, -180745.61, 0.28, 0.70, 0.72
98, -180423.55, -180501.89, -180525.63, -180444.69, -167091.05, -48685.27, -180899.45, -180750.42, 0.28, 0.70, 0.72
99, -180346.92, -180505.84, -180521.53, -180330.83, -167161.88, -48726.82, -180901.17, -180745.39, 0.28, 0.70, 0.72
100, -180526.11, -180478.31, -180487.94, -180470.91, -167286.02, -48821.64, -180830.23, -180734.55, 0.28, 0.70, 0.72
101, -180729.88, -180469.08, -180491.83, -180540.05, -167462.64, -48966.68, -180831.19, -180727.50, 0.28, 0.70, 0.72
102, -180688.13, -180487.53, -180499.78, -180442.41, -167579.84, -49053.52, -180868.34, -180728.00, 0.28, 0.70, 0.72
103, -180593.08, -180490.23, -180496.14, -180314.47, -167666.83, -49108.97, -180883.92, -180719.55, 0.28, 0.70, 0.72
104, -180519.91, -180469.67, -180480.27, -180408.64, -167786.66, -49197.46, -180835.94, -180748.94, 0.28, 0.70, 0.72
105, -180504.66, -180452.80, -180473.59, -180534.52, -167976.97, -49354.37, -180809.69, -180755.58, 0.29, 0.70, 0.72
106, -180420.89, -180469.00, -180492.56, -180458.70, -168113.41, -49458.80, -180856.97, -180719.23, 0.29, 0.70, 0.72
107, -180332.73, -180478.02, -180485.17, -180317.38, -168191.28, -49506.68, -180868.00, -180704.14, 0.29, 0.70, 0.72
108, -180469.44, -180455.64, -180468.69, -180350.98, -168281.27, -49566.31, -180833.52, -180707.75, 0.29, 0.70, 0.72
109, -180692.38, -180428.84, -180449.42, -180512.30, -168456.53, -49709.85, -180785.78, -180706.61, 0.29, 0.70, 0.72
110, -180683.69, -180456.31, -180470.80, -180459.34, -168595.83, -49817.93, -180833.97, -180697.91, 0.29, 0.70, 0.72
111, -180594.17, -180462.28, -180467.16, -180326.92, -168686.84, -49878.92, -180850.91, -180698.11, 0.29, 0.71, 0.71
112, -180505.42, -180444.95, -180457.23, -180315.03, -168784.19, -49947.34, -180815.39, -180694.72, 0.29, 0.71, 0.71
113, -180485.30, -180421.06, -180436.70, -180492.70, -168968.63, -50099.91, -180769.81, -180686.05, 0.29, 0.71, 0.71
114, -180440.39, -180427.16, -180456.42, -180462.55, -169126.53, -50225.82, -180812.23, -180684.55, 0.29, 0.71, 0.71
115, -180309.33, -180444.31, -180456.25, -180331.56, -169221.09, -50289.64, -180841.98, -180681.69, 0.29, 0.71, 0.71
116, -180328.92, -180439.50, -180448.95, -180271.31, -169294.47, -50331.25, -180821.84, -180680.25, 0.29, 0.70, 0.71
117, -180563.52, -180405.08, -180418.42, -180448.73, -169449.84, -50453.45, -180748.69, -180667.83, 0.29, 0.70, 0.71
118, -180672.16, -180407.89, -180430.34, -180456.63, -169616.50, -50586.78, -180786.36, -180658.81, 0.29, 0.70, 0.71
119, -180594.78, -180422.20, -180431.36, -180338.22, -169719.06, -50658.57, -180811.48, -180666.39, 0.29, 0.70, 0.71
120, -180497.39, -180414.80, -180428.84, -180243.88, -169803.98, -50713.56, -180799.83, -180656.52, 0.29, 0.70, 0.71
121, -180456.17, -180388.98, -180408.86, -180408.52, -169963.13, -50838.39, -180736.06, -180643.81, 0.29, 0.70, 0.71
122, -180436.47, -180389.66, -180415.66, -180454.17, -170144.64, -50984.93, -180760.09, -180645.09, 0.29, 0.70, 0.71
123, -180329.86, -180397.92, -180426.38, -180345.31, -170254.50, -51063.56, -180799.13, -180656.53, 0.29, 0.70, 0.71
124, -180244.73, -180406.91, -180430.16, -180227.70, -170324.69, -51105.61, -180814.86, -180646.14, 0.29, 0.70, 0.71
125, -180402.48, -180385.88, -180403.78, -180354.09, -170435.55, -51187.66, -180758.80, -180660.45, 0.29, 0.70, 0.71
126, -180620.86, -180371.02, -180392.98, -180440.33, -170610.17, -51331.67, -180732.09, -180664.36, 0.28, 0.70, 0.71
127, -180594.63, -180394.89, -180407.34, -180349.56, -170733.70, -51423.88, -180776.59, -180641.89, 0.28, 0.70, 0.71
128, -180497.86, -180394.59, -180401.33, -180217.69, -170818.64, -51477.16, -180784.70, -180635.59, 0.28, 0.70, 0.71
129, -180428.02, -180361.86, -180382.38, -180301.44, -170939.25, -51566.57, -180728.11, -180634.23, 0.28, 0.70, 0.71
130, -180415.78, -180351.58, -180375.31, -180437.67, -171132.69, -51726.09, -180711.83, -180627.70, 0.28, 0.70, 0.71
131, -180351.22, -180361.11, -180391.72, -180365.08, -171267.08, -51829.09, -180754.95, -180624.31, 0.29, 0.71, 0.71
132, -180220.39, -180368.48, -180391.58, -180228.61, -171351.48, -51883.52, -180775.22, -180617.83, 0.29, 0.71, 0.71
133, -180277.56, -180366.03, -180377.97, -180252.22, -171437.69, -51939.91, -180743.22, -180610.27, 0.29, 0.71, 0.71
134, -180527.48, -180341.22, -180357.98, -180406.47, -171607.81, -52077.93, -180692.09, -180597.22, 0.29, 0.71, 0.71
135, -180588.03, -180356.94, -180373.34, -180351.55, -171747.88, -52184.30, -180735.13, -180605.00, 0.29, 0.71, 0.71
136, -180499.42, -180358.91, -180371.23, -180218.58, -171839.61, -52242.80, -180753.20, -180598.67, 0.30, 0.71, 0.72
137, -180407.61, -180342.16, -180362.75, -180214.98, -171931.09, -52302.70, -180733.88, -180604.13, 0.30, 0.71, 0.72
138, -180384.50, -180315.25, -180335.98, -180392.92, -172112.77, -52449.08, -180679.22, -180624.03, 0.30, 0.71, 0.72
139, -180352.69, -180321.16, -180351.34, -180371.67, -172279.42, -52580.82, -180698.30, -180600.64, 0.30, 0.71, 0.72
140, -180234.22, -180332.64, -180355.77, -180251.44, -172381.47, -52649.78, -180731.86, -180584.52, 0.30, 0.71, 0.72
141, -180179.80, -180338.66, -180354.91, -180161.36, -172454.63, -52692.98, -180735.34, -180583.73, 0.30, 0.71, 0.72
142, -180383.69, -180312.56, -180327.31, -180326.97, -172596.00, -52805.04, -180668.58, -180579.06, 0.29, 0.71, 0.72
143, -180562.80, -180320.03, -180340.64, -180355.34, -172757.67, -52933.11, -180692.13, -180567.00, 0.29, 0.71, 0.72
144, -180503.34, -180328.66, -180338.94, -180238.16, -172859.83, -53002.96, -180713.11, -180570.89, 0.29, 0.71, 0.72
145, -180408.44, -180319.20, -180334.78, -180147.03, -172944.42, -53057.23, -180713.61, -180561.09, 0.29, 0.71, 0.72
146, -180360.33, -180291.78, -180308.77, -180307.42, -173094.34, -53175.29, -180659.20, -180575.42, 0.29, 0.71, 0.72
147, -180343.39, -180289.83, -180315.81, -180357.31, -173279.20, -53329.29, -180656.11, -180564.06, 0.29, 0.70, 0.71
148, -180247.02, -180304.78, -180327.66, -180254.44, -173395.53, -53413.20, -180695.56, -180552.56, 0.29, 0.70, 0.71
149, -180149.72, -180316.03, -180330.73, -180133.86, -173465.83, -53449.72, -180719.06, -180545.56, 0.29, 0.70, 0.71
150, -180293.34, -180297.39, -180303.42, -180258.30, -173572.64, -53523.98, -180662.14, -180562.61, 0.29, 0.70, 0.71
151, -180521.00, -180275.78, -180295.44, -180359.42, -173748.13, -53665.20, -180631.97, -180562.42, 0.29, 0.70, 0.71
152, -180503.25, -180298.02, -180310.52, -180270.92, -173871.89, -53754.54, -180682.64, -180540.98, 0.29, 0.70, 0.71
153, -180407.81, -180295.52, -180307.47, -180137.16, -173958.64, -53807.00, -180690.64, -180535.95, 0.29, 0.70, 0.71
154, -180333.28, -180264.83, -180287.06, -180208.11, -174075.36, -53889.50, -180636.91, -180553.56, 0.29, 0.70, 0.71
155, -180322.22, -180253.00, -180277.08, -180350.41, -174270.11, -54048.59, -180609.48, -180558.86, 0.29, 0.70, 0.71
156, -180264.05, -180267.13, -180296.58, -180285.52, -174413.36, -54156.26, -180656.42, -180535.55, 0.29, 0.70, 0.71
157, -180131.20, -180279.28, -180292.77, -180148.75, -174502.16, -54209.04, -180672.77, -180515.67, 0.29, 0.69, 0.71
158, -180179.13, -180269.67, -180279.98, -180129.14, -174585.05, -54259.13, -180649.00, -180525.00, 0.29, 0.69, 0.71
159, -180426.19, -180240.86, -180259.73, -180296.19, -174749.58, -54390.09, -180593.69, -180535.13, 0.29, 0.69, 0.71
160, -180498.52, -180256.69, -180274.39, -180259.09, -174894.34, -54501.06, -180633.36, -180513.52, 0.29, 0.69, 0.71
161, -180411.92, -180268.47, -180275.16, -180127.41, -174986.75, -54558.17, -180659.75, -180506.47, 0.29, 0.69, 0.71
162, -180318.58, -180250.05, -180265.63, -180114.73, -175076.48, -54612.17, -180632.27, -180498.84, 0.30, 0.69, 0.71
163, -180295.22, -180227.56, -180241.17, -180301.81, -175256.92, -54756.00, -180587.98, -180492.72, 0.30, 0.69, 0.71
164, -180264.38, -180230.72, -180258.52, -180288.47, -175426.75, -54888.48, -180607.59, -180489.34, 0.30, 0.69, 0.71
165, -180140.09, -180239.14, -180264.06, -180164.23, -175527.02, -54953.68, -180639.86, -180493.81, 0.30, 0.69, 0.71
166, -180097.52, -180241.94, -180263.50, -180071.55, -175598.16, -54990.86, -180641.70, -180486.02, 0.30, 0.69, 0.71
167, -180307.63, -180216.80, -180229.98, -180231.70, -175739.11, -55097.99, -180573.86, -180476.16, 0.29, 0.69, 0.72
168, -180477.48, -180215.66, -180236.39, -180258.44, -175905.52, -55229.35, -180587.61, -180463.89, 0.29, 0.69, 0.72
169, -180415.03, -180230.36, -180237.13, -180143.81, -176010.69, -55301.14, -180615.72, -180474.95, 0.29, 0.69, 0.72
170, -180318.78, -180223.14, -180232.14, -180037.81, -176095.94, -55353.31, -180614.86, -180466.50, 0.29, 0.69, 0.72
171, -180267.02, -180202.89, -180211.92, -180190.97, -176240.61, -55463.32, -180551.73, -180474.55, 0.29, 0.69, 0.72
172, -180253.63, -180197.17, -180215.47, -180270.03, -176430.19, -55617.60, -180554.75, -180465.39, 0.29, 0.69, 0.72
173, -180158.72, -180206.63, -180232.03, -180171.38, -176548.44, -55701.26, -180601.70, -180457.09, 0.29, 0.70, 0.73
174, -180058.58, -180218.64, -180230.48, -180033.27, -176622.16, -55739.71, -180618.11, -180448.17, 0.29, 0.70, 0.73
175, -180200.66, -180197.44, -180206.19, -180121.02, -176728.44, -55809.40, -180561.56, -180458.08, 0.29, 0.70, 0.73
176, -180424.53, -180176.78, -180197.67, -180244.59, -176906.81, -55950.39, -180530.36, -180444.20, 0.29, 0.70, 0.73
177, -180404.39, -180197.55, -180212.08, -180162.14, -177033.97, -56039.66, -180581.17, -180434.14, 0.29, 0.70, 0.73
178, -180306.06, -180201.92, -180214.95, -180028.78, -177117.41, -56085.38, -180598.27, -180435.80, 0.29, 0.71, 0.73
179, -180227.55, -180169.50, -180191.17, -180109.20, -177227.22, -56160.63, -180542.56, -180445.73, 0.29, 0.71, 0.73
180, -180219.78, -180156.81, -180175.44, -180251.14, -177425.13, -56320.79, -180513.91, -180443.48, 0.29, 0.71, 0.73
181, -180165.14, -180163.45, -180196.98, -180189.70, -177573.41, -56429.37, -180552.92, -180425.31, 0.29, 0.71, 0.73
182, -180027.89, -180174.72, -180205.30, -180048.19, -177656.11, -56475.64, -180588.92, -180422.17, 0.29, 0.71, 0.73
183, -180065.77, -180170.52, -180191.16, -180041.80, -177731.55, -56514.84, -180558.28, -180419.91, 0.29, 0.70, 0.73
184, -180306.78, -180142.66, -180163.45, -180215.50, -177892.36, -56640.59, -180497.30, -180436.86, 0.29, 0.70, 0.73
185, -180399.00, -180156.27, -180176.72, -180187.44, -178043.81, -56758.39, -180531.39, -180413.08, 0.29, 0.70, 0.73
186, -180314.22, -180171.61, -180179.23, -180058.16, -178139.31, -56816.50, -180563.91, -180405.08, 0.29, 0.70, 0.73
187, -180218.17, -180155.02, -180167.58, -179999.28, -178228.20, -56867.78, -180537.06, -180411.70, 0.29, 0.70, 0.73
188, -180192.61, -180129.94, -180148.48, -180180.72, -178406.64, -57008.17, -180485.02, -180419.55, 0.30, 0.70, 0.72
189, -180166.91, -180130.00, -180158.31, -180187.59, -178583.22, -57144.71, -180503.50, -180400.23, 0.30, 0.70, 0.72
190, -180041.84, -180143.67, -180166.86, -180065.09, -178685.06, -57207.57, -180547.14, -180386.22, 0.30, 0.70, 0.72
191, -179998.13, -180142.06, -180163.02, -179958.50, -178750.09, -57235.84, -180545.11, -180383.17, 0.30, 0.70, 0.72
192, -180202.39, -180115.80, -180132.69, -180118.64, -178888.63, -57335.96, -180468.78, -180374.38, 0.30, 0.70, 0.72
193, -180377.66, -180119.30, -180140.02, -180170.25, -179063.78, -57472.26, -180488.72, -180366.08, 0.29, 0.70, 0.71
194, -180315.66, -180138.22, -180149.91, -180055.05, -179170.53, -57541.93, -180527.56, -180372.36, 0.29, 0.70, 0.71
195, -180208.72, -180132.69, -180149.59, -179954.67, -179243.86, -57579.21, -180530.05, -180364.92, 0.29, 0.70, 0.71
196, -180151.41, -180095.78, -180113.03, -180110.06, -179382.33, -57680.95, -180463.95, -180390.55, 0.29, 0.70, 0.71
197, -180144.81, -180093.94, -180113.08, -180178.44, -179583.67, -57842.85, -180454.28, -180395.83, 0.29, 0.70, 0.71
198, -180059.05, -180105.55, -180132.91, -180089.23, -179714.64, -57935.09, -180492.75, -180361.41, 0.31, 0.71, 0.70
199, -179956.14, -180116.66, -180126.47, -179941.94, -179784.13, -57966.81, -180514.42, -180335.98, 0.31, 0.71, 0.70
200, -180074.91, -180097.28, -180112.61, -180000.56, -179874.63, -58018.91, -180476.45, -180358.55, 0.31, 0.71, 0.70
201, -180317.58, -180074.03, -180096.47, -180152.34, -180054.34, -58159.28, -180430.14, -180365.34, 0.31, 0.71, 0.70
202, -180329.22, -180100.16, -180115.64, -180086.48, -180190.39, -58257.41, -180482.73, -180346.31, 0.31, 0.71, 0.70
203, -180229.58, -180107.94, -180115.69, -179944.08, -180272.89, -58302.22, -180505.39, -180337.13, 0.31, 0.71, 0.70
204, -180145.75, -180082.95, -180100.11, -179986.72, -180444.48, -58371.38, -180453.20, -180340.38, 0.30, 0.70, 0.70
205, -180146.88, -180077.30, -180087.23, -180162.94, -180681.33, -58560.52, -180426.56, -180354.81, 0.30, 0.70, 0.70
206, -180129.95, -180070.09, -180089.73, -180139.55, -180677.89, -58728.76, -180431.92, -180336.34, 0.30, 0.70, 0.70
207, -180043.91, -180071.84, -180100.27, -180034.41, -180593.50, -58835.20, -180468.52, -180327.86, 0.30, 0.70, 0.70
208, -179950.33, -180077.58, -180087.58, -179953.58, -180498.73, -58928.50, -180451.17, -180331.52, 0.30, 0.70, 0.70
209, -180168.28, -180060.69, -180068.16, -180110.80, -180485.02, -59102.48, -180404.55, -180345.56, 0.29, 0.70, 0.70
210, -180341.63, -180060.31, -180082.83, -180124.28, -180467.02, -59272.67, -180421.48, -180333.23, 0.29, 0.70, 0.70
211, -180292.83, -180068.27, -180086.97, -180024.55, -180389.91, -59382.91, -180449.92, -180322.38, 0.29, 0.70, 0.70
212, -180218.02, -180068.63, -180082.34, -179934.11, -180299.64, -59478.37, -180452.17, -180322.00, 0.29, 0.70, 0.70
213, -180203.69, -180063.25, -180072.17, -180090.28, -180288.63, -59654.79, -180419.59, -180357.34, 0.29, 0.70, 0.70
214, -180204.31, -180066.55, -180073.77, -180137.27, -180290.27, -59844.60, -180418.27, -180352.33, 0.30, 0.70, 0.70
215, -180155.77, -180058.20, -180081.45, -180055.23, -180222.44, -59968.48, -180432.69, -180316.02, 0.30, 0.70, 0.70
216, -180074.91, -180057.02, -180081.05, -179936.45, -180032.88, -60049.75, -180453.22, -180311.27, 0.30, 0.70, 0.70
217, -180034.83, -180025.17, -180055.81, -180036.41, -180019.69, -60174.52, -180405.42, -180333.88, 0.30, 0.70, 0.70
218, -180009.34, -180032.80, -180064.50, -180118.75, -180207.52, -60326.48, -180404.52, -180325.33, 0.30, 0.70, 0.70
219, -179903.73, -180065.30, -180079.75, -180011.52, -180356.91, -60398.64, -180453.67, -180299.38, 0.29, 0.69, 0.70
220, -179960.50, -180068.53, -180075.89, -179879.59, -180508.38, -60436.16, -180462.70, -180289.03, 0.29, 0.69, 0.70
221, -180172.75, -180047.41, -180054.67, -180012.16, -180494.39, -60549.64, -180412.34, -180313.45, 0.29, 0.69, 0.70
222, -180340.59, -180040.33, -180047.34, -180130.89, -180504.09, -60748.55, -180394.42, -180322.83, 0.29, 0.69, 0.70
223, -180314.17, -180030.88, -180053.84, -180071.80, -180460.58, -60894.22, -180398.98, -180291.47, 0.29, 0.69, 0.70
224, -180237.52, -180041.42, -180054.63, -179951.70, -180366.25, -60985.48, -180431.39, -180292.58, 0.30, 0.69, 0.70
225, -180185.67, -180019.80, -180041.39, -179950.00, -180306.55, -61112.33, -180396.23, -180313.44, 0.30, 0.69, 0.70
226, -180193.09, -180027.09, -180041.70, -180108.19, -180321.69, -61314.95, -180388.94, -180343.30, 0.30, 0.69, 0.70
227, -180169.84, -180021.14, -180047.39, -180076.13, -180292.05, -61473.04, -180382.53, -180309.03, 0.30, 0.69, 0.70
228, -180103.52, -180036.03, -180055.23, -179966.34, -180208.61, -61575.75, -180426.19, -180278.19, 0.30, 0.69, 0.70
229, -180038.80, -180014.47, -180037.58, -179928.50, -180132.14, -61685.43, -180399.47, -180304.86, 0.31, 0.69, 0.71
230, -180044.06, -180015.52, -180030.31, -180100.45, -180144.69, -61884.49, -180380.81, -180343.28, 0.31, 0.69, 0.71
231, -180026.78, -180011.64, -180035.41, -180089.66, -180099.67, -62053.56, -180377.44, -180317.34, 0.31, 0.69, 0.71
232, -179908.30, -180018.16, -180052.84, -179974.63, -179916.92, -62136.95, -180418.67, -180269.73, 0.31, 0.69, 0.71
233, -179893.30, -180025.61, -180047.25, -179878.77, -179918.33, -62168.38, -180426.97, -180272.94, 0.31, 0.69, 0.71
234, -180125.53, -179998.19, -180016.92, -180038.53, -180078.09, -62285.52, -180362.20, -180296.47, 0.31, 0.69, 0.71
235, -180266.75, -180002.70, -180025.69, -180046.69, -180270.30, -62411.54, -180372.14, -180277.30, 0.29, 0.70, 0.71
236, -180201.80, -180015.59, -180026.23, -179932.13, -180479.98, -62491.72, -180398.13, -180259.86, 0.29, 0.70, 0.71
237, -180117.53, -180009.80, -180021.88, -179854.58, -180466.19, -62573.75, -180394.48, -180259.70, 0.29, 0.70, 0.71
238, -180100.72, -179996.38, -180005.44, -180036.41, -180452.16, -62745.12, -180349.94, -180299.25, 0.29, 0.70, 0.71
239, -180104.03, -180002.59, -180010.13, -180083.22, -180456.73, -62938.53, -180355.08, -180297.50, 0.29, 0.70, 0.71
240, -180054.34, -179991.23, -180020.20, -180000.89, -180393.77, -63064.48, -180370.69, -180256.58, 0.29, 0.70, 0.71
241, -179949.78, -179999.06, -180020.78, -179880.66, -180297.14, -63152.19, -180390.13, -180253.58, 0.29, 0.70, 0.71
242, -179923.09, -179989.52, -179999.53, -179972.64, -180257.58, -63296.14, -180343.19, -180269.89, 0.29, 0.70, 0.71
243, -180175.22, -179984.64, -179996.45, -180067.48, -180257.14, -63480.43, -180334.92, -180264.33, 0.29, 0.70, 0.71
244, -180245.22, -179985.11, -180009.30, -179994.25, -180200.78, -63611.09, -180361.86, -180241.69, 0.29, 0.70, 0.71
245, -180166.52, -179999.19, -180011.20, -179868.70, -180052.28, -63694.89, -180387.44, -180237.17, 0.29, 0.71, 0.71
246, -180110.80, -179979.91, -179994.77, -179925.19, -179930.03, -63802.14, -180341.27, -180260.20, 0.29, 0.71, 0.71
247, -180102.55, -179976.00, -179989.63, -180052.61, -180097.52, -63959.16, -180328.33, -180265.25, 0.29, 0.71, 0.71
248, -180043.97, -179983.55, -180006.27, -179974.58, -180265.20, -64050.31, -180369.86, -180245.22, 0.29, 0.71, 0.71
249, -179921.70, -179986.28, -180003.70, -179839.36, -180446.83, -64108.62, -180385.72, -180228.77, 0.29, 0.71, 0.71
250, -179873.47, -179968.28, -179985.53, -179888.05, -180431.44, -64206.88, -180339.36, -180244.11, 0.28, 0.72, 0.72
251, -180134.05, -179956.48, -179971.91, -180044.09, -180434.92, -64393.79, -180310.22, -180262.36, 0.28, 0.72, 0.72
252, -180233.36, -179957.39, -179981.69, -180007.58, -180405.73, -64551.88, -180321.33, -180232.70, 0.28, 0.72, 0.72
253, -180163.92, -179978.70, -179992.02, -179893.11, -180317.63, -64650.00, -180363.38, -180215.89, 0.28, 0.72, 0.72
254, -180094.86, -179960.50, -179970.70, -179863.16, -180237.02, -64753.25, -180340.48, -180232.80, 0.28, 0.72, 0.72
255, -180099.83, -179962.11, -179962.97, -180036.59, -180249.36, -64949.23, -180319.50, -180267.38, 0.27, 0.72, 0.73
0, -180086.97, -179958.67, -179973.41, -180025.86, -180234.64, -65117.98, -180313.23, -180244.55, 0.27, 0.72, 0.73
1, -180027.16, -179959.08, -179982.39, -179929.23, -180159.19, -65226.01, -180343.30, -180208.63, 0.27, 0.72, 0.73
2, -179959.19, -179937.08, -179965.09, -179832.34, -180076.73, -65325.47, -180322.05, -180212.25, 0.27, 0.72, 0.73
3, -179954.36, -179931.64, -179957.78, -179974.45, -180077.66, -65509.05, -180296.36, -180261.84, 0.27, 0.72, 0.73
4, -179950.33, -179937.59, -179966.25, -180025.25, -180065.42, -65691.08, -180306.27, -180257.45, 0.27, 0.72, 0.73
5, -179849.80, -179945.13, -179980.73, -179927.25, -179892.69, -65794.15, -180346.67, -180208.63, 0.27, 0.72, 0.73
6, -179798.08, -179958.63, -179979.64, -179795.73, -179825.19, -65825.73, -180363.47, -180199.02, 0.27, 0.72, 0.73
7, -180000.06, -179933.38, -179953.11, -179925.48, -179966.38, -65922.16, -180293.36, -180207.16, 0.27, 0.72, 0.73
8, -180189.61, -179930.17, -179953.59, -179989.81, -180148.73, -66053.85, -180298.19, -180196.72, 0.27, 0.72, 0.73
9, -180136.70, -179949.39, -179961.88, -179880.19, -180351.70, -66127.19, -180335.08, -180190.95, 0.27, 0.72, 0.73
10, -180045.11, -179944.30, -179956.66, -179778.78, -180415.88, -66195.74, -180331.55, -180187.27, 0.27, 0.73, 0.74
11, -180013.67, -179919.94, -179934.67, -179943.25, -180388.11, -66346.70, -180286.70, -180192.19, 0.27, 0.73, 0.74
12, -180027.14, -179934.80, -179940.44, -180030.00, -180406.56, -66550.26, -180293.34, -180201.45, 0.27, 0.73, 0.74
13, -179988.13, -179921.05, -179948.56, -179961.64, -180357.53, -66685.22, -180293.08, -180179.55, 0.27, 0.73, 0.74
14, -179891.58, -179924.70, -179946.59, -179842.73, -180265.22, -66775.66, -180321.03, -180173.00, 0.27, 0.73, 0.74
15, -179836.70, -179912.42, -179928.34, -179841.95, -180206.27, -66899.02, -180280.92, -180194.91, 0.28, 0.73, 0.74
16, -180080.56, -179904.80, -179923.95, -179979.81, -180207.56, -67082.61, -180262.70, -180199.28, 0.28, 0.73, 0.74
17, -180172.95, -179910.50, -179933.50, -179930.22, -180163.13, -67220.45, -180282.14, -180176.98, 0.28, 0.73, 0.74
18, -180100.09, -179925.28, -179938.39, -179807.17, -180059.44, -67308.90, -180314.44, -180162.20, 0.28, 0.73, 0.74
19, -180031.05, -179905.52, -179924.11, -179832.72, -179884.53, -67404.39, -180279.91, -180183.75, 0.28, 0.73, 0.74
20, -180026.28, -179897.58, -179914.69, -179989.31, -179961.06, -67565.19, -180252.89, -180201.59, 0.29, 0.71, 0.72
21, -179985.89, -179908.05, -179932.97, -179938.42, -180126.52, -67674.82, -180287.64, -180172.47, 0.29, 0.71, 0.72
22, -179878.42, -179911.73, -179932.97, -179805.83, -180320.61, -67731.02, -180312.80, -180158.72, 0.29, 0.71, 0.72
23, -179778.45, -179905.70, -179921.64, -179765.95, -180371.47, -67808.73, -180285.09, -180167.44, 0.29, 0.71, 0.72
24, -179996.83, -179886.86, -179897.66, -179952.80, -180362.19, -67979.01, -180241.52, -180194.69, 0.29, 0.71, 0.72
25, -180162.47, -179884.31, -179907.91, -179955.61, -180343.70, -68144.01, -180245.94, -180173.38, 0.29, 0.69, 0.71
26, -180111.47, -179896.75, -179916.25, -179855.56, -180265.63, -68248.01, -180278.53, -180148.73, 0.29, 0.69, 0.71
27, -180037.23, -179892.67, -179906.03, -179764.06, -180175.06, -68337.75, -180278.13, -180156.11, 0.29, 0.69, 0.71
28, -180030.89, -179887.77, -179893.84, -179918.84, -180173.06, -68515.83, -180250.31, -180188.89, 0.29, 0.69, 0.71
29, -180030.16, -179892.06, -179902.70, -179959.16, -180174.41, -68698.45, -180247.97, -180181.34, 0.29, 0.69, 0.71
30, -179978.70, -179885.02, -179910.39, -179872.80, -180109.70, -68815.45, -180262.52, -180143.36, 0.30, 0.69, 0.69
31, -179901.78, -179879.80, -179905.86, -179761.00, -180015.92, -68902.09, -180276.52, -180143.81, 0.30, 0.69, 0.69
32, -179877.80, -179859.42, -179892.05, -179887.42, -179993.88, -69060.34, -180239.91, -180188.97, 0.30, 0.69, 0.69
33, -179882.19, -179869.52, -179894.23, -179974.34, -180001.31, -69251.60, -180239.95, -180197.67, 0.30, 0.69, 0.69
34, -179803.59, -179868.42, -179903.73, -179896.98, -179864.66, -69371.56, -180248.39, -180148.11, 0.30, 0.69, 0.69
35, -179724.67, -179889.53, -179912.63, -179752.80, -179735.36, -69408.53, -180290.45, -180128.33, 0.30, 0.69, 0.69
36, -179887.50, -179869.08, -179884.00, -179822.28, -179843.00, -69480.22, -180239.70, -180147.61, 0.30, 0.69, 0.69
37, -180113.28, -179857.75, -179881.64, -179927.69, -180031.25, -69619.22, -180221.58, -180143.13, 0.30, 0.69, 0.69
38, -180088.25, -179879.77, -179892.63, -179838.05, -180219.19, -69701.39, -180259.91, -180126.16, 0.30, 0.69, 0.69
39, -179995.73, -179874.88, -179888.23, -179711.53, -180354.03, -69762.18, -180267.69, -180121.17, 0.30, 0.69, 0.69
40, -179937.06, -179858.16, -179874.06, -179818.28, -180313.95, -69877.16, -180232.97, -180140.61, 0.30, 0.69, 0.69
41, -179948.77, -179865.89, -179873.53, -179965.05, -180332.58, -70077.09, -180223.83, -180156.27, 0.31, 0.69, 0.69
42, -179924.47, -179851.66, -179874.72, -179919.67, -180299.89, -70227.41, -180213.03, -180124.80, 0.31, 0.69, 0.69
43, -179843.81, -179851.36, -179875.67, -179816.14, -180216.44, -70321.00, -180245.28, -180107.69, 0.31, 0.69, 0.69
44, -179767.11, -179844.00, -179845.80, -179733.92, -180153.17, -70433.83, -180216.23, -180129.69, 0.31, 0.69, 0.69
45, -179997.94, -179846.89, -179843.38, -179723.47, -180165.66, -70625.84, -180203.13, -180155.70, 0.31, 0.69, 0.69
46, -180112.56, -179851.94, -179873.67, -179684.13, -180132.30, -70772.04, -180221.19, -180123.47, 0.31, 0.69, 0.69
47, -180020.47, -179870.83, -179892.28, -179776.97, -180008.84, -70837.13, -180272.31, -180101.67, 0.31, 0.69, 0.69
48, -179938.73, -179839.31, -179862.05, -179849.06, -179817.34, -70912.02, -180216.70, -180116.14, 0.31, 0.69, 0.69
49, -179937.92, -179831.77, -179848.14, -179849.81, -179895.81, -71072.87, -180186.03, -180148.50, 0.31, 0.69, 0.69
50, -179915.52, -179833.69, -179851.39, -179804.41, -180098.02, -71202.17, -180199.48, -180121.44, 0.31, 0.69, 0.69
51, -179820.61, -179842.08, -179870.03, -179687.34, -180303.00, -71268.98, -180246.27, -180091.75, 0.30, 0.70, 0.70
52, -179693.98, -179838.22, -179862.72, -179727.88, -180272.78, -71325.71, -180233.63, -180089.34, 0.30, 0.70, 0.70
53, -179882.91, -179821.41, -179835.58, -179894.56, -180249.73, -71480.59, -180181.97, -180123.19, 0.30, 0.70, 0.70
54, -180090.22, -179821.45, -179838.33, -179897.03, -180249.25, -71660.43, -180179.33, -180115.83, 0.30, 0.70, 0.70
55, -180055.19, -179827.38, -179848.14, -179807.16, -180182.53, -71772.55, -180205.44, -180089.58, 0.30, 0.70, 0.70
56, -179971.02, -179832.78, -179846.83, -179696.75, -180081.36, -71848.32, -180222.59, -180085.20, 0.30, 0.70, 0.71
57, -179944.13, -179811.02, -179823.63, -179838.31, -180055.00, -72000.06, -180179.89, -180120.63, 0.30, 0.70, 0.71
58, -179953.28, -179823.16, -179830.80, -179920.36, -180069.09, -72193.20, -180181.19, -180129.48, 0.30, 0.70, 0.71
59, -179913.05, -179811.06, -179838.84, -179849.58, -180018.58, -72323.38, -180180.63, -180083.06, 0.30, 0.70, 0.71
60, -179840.03, -179814.02, -179834.27, -179734.44, -179892.38, -72408.98, -180209.45, -180074.25, 0.30, 0.70, 0.71
61, -179798.64, -179792.36, -179818.75, -179714.39, -179765.63, -72525.69, -180167.92, -180101.23, 0.30, 0.70, 0.71
62, -179779.64, -179793.72, -179822.03, -179863.77, -179913.00, -72674.59, -180162.30, -180097.56, 0.30, 0.70, 0.71
63, -179676.59, -179819.20, -179841.89, -179797.56, -180045.52, -72749.61, -180209.56, -180067.45, 0.30, 0.70, 0.71
64, -179708.89, -179824.63, -179838.20, -179643.33, -180199.59, -72766.91, -180226.00, -180048.59, 0.30, 0.70, 0.71
65, -179895.69, -179803.70, -179817.83, -179720.63, -180281.30, -72843.15, -180186.33, -180072.67, 0.30, 0.70, 0.71
66, -180091.39, -179796.75, -179805.23, -179881.67, -180298.17, -73030.92, -180155.92, -180095.84, 0.29, 0.70, 0.71
67, -180083.39, -179789.11, -179808.00, -179844.34, -180270.20, -73181.17, -180149.31, -180064.23, 0.29, 0.70, 0.71
68, -180015.27, -179804.28, -179818.55, -179735.16, -180186.92, -73274.98, -180190.30, -180044.56, 0.29, 0.70, 0.71
69, -179950.88, -179790.45, -179808.53, -179676.97, -180112.34, -73377.29, -180163.41, -180068.94, 0.29, 0.70, 0.71
70, -179956.92, -179793.14, -179807.08, -179854.00, -180125.48, -73568.57, -180144.91, -180103.13, 0.29, 0.70, 0.71
71, -179944.72, -179788.91, -179803.63, -179860.23, -180110.80, -73732.41, -180140.34, -180078.48, 0.29, 0.70, 0.71
72, -179883.66, -179789.27, -179810.66, -179764.38, -180034.78, -73833.89, -180177.81, -180038.38, 0.29, 0.71, 0.71
73, -179823.00, -179779.56, -179782.66, -179672.25, -179962.31, -73937.35, -180155.77, -180033.97, 0.29, 0.71, 0.71
74, -179840.67, -179793.22, -179784.50, -179675.92, -179986.44, -74139.30, -180147.28, -180051.86, 0.29, 0.71, 0.71
75, -179836.70, -179796.69, -179800.47, -179640.31, -179982.56, -74313.98, -180154.36, -180048.69, 0.29, 0.71, 0.71
76, -179736.67, -179773.75, -179817.03, -179650.70, -179852.77, -74400.04, -180175.73, -180034.38, 0.29, 0.71, 0.71
77, -179618.03, -179777.73, -179805.88, -179782.63, -179644.78, -74434.44, -180185.44, -180033.66, 0.31, 0.70, 0.71
78, -179811.11, -179763.08, -179778.69, -179828.30, -179760.67, -74547.36, -180127.47, -180049.17, 0.31, 0.70, 0.71
79, -180023.27, -179762.36, -179784.50, -179793.56, -179950.11, -74680.33, -180128.09, -180030.78, 0.31, 0.70, 0.71
80, -179971.97, -179784.73, -179796.55, -179676.14, -180124.14, -74741.30, -180172.36, -180023.02, 0.31, 0.70, 0.71
81, -179873.67, -179773.53, -179792.52, -179590.88, -180255.41, -74793.16, -180164.31, -180015.63, 0.31, 0.70, 0.71
82, -179840.23, -179759.52, -179770.02, -179780.19, -180247.70, -74935.80, -180118.55, -180046.88, 0.30, 0.71, 0.71
83, -179854.20, -179772.34, -179773.06, -179868.17, -180266.17, -75131.97, -180118.42, -180056.28, 0.30, 0.71, 0.71
84, -179820.19, -179753.23, -179775.83, -179803.33, -180222.27, -75266.66, -180114.03, -180015.73, 0.30, 0.71, 0.71
85, -179749.28, -179745.38, -179772.48, -179696.75, -180136.38, -75358.37, -180148.69, -180009.80, 0.30, 0.71, 0.71
86, -179723.23, -179731.95, -179757.73, -179648.77, -180107.09, -75508.33, -180119.31, -180053.08, 0.30, 0.71, 0.71
87, -179744.28, -179757.17, -179770.36, -179653.91, -180134.41, -75715.28, -180127.89, -180083.42, 0.30, 0.70, 0.72
88, -179673.98, -179756.33, -179780.14, -179596.69, -180089.16, -75848.18, -180129.22, -180038.16, 0.30, 0.70, 0.72
89, -179589.73, -179769.67, -179789.56, -179658.72, -179966.56, -75899.64, -180171.14, -180004.06, 0.30, 0.70, 0.72
90, -179751.89, -179747.11, -179762.58, -179801.16, -179879.91, -75987.46, -180122.48, -180030.28, 0.30, 0.70, 0.72
91, -180004.47, -179748.39, -179759.70, -179848.88, -179897.16, -76182.05, -180100.00, -180056.30, 0.30, 0.70, 0.72
92, -180023.27, -179740.19, -179761.84, -179807.03, -179869.94, -76338.55, -180097.25, -180026.27, 0.29, 0.69, 0.72
93, -179954.83, -179750.58, -179769.36, -179698.16, -179694.03, -76427.56, -180136.55, -179995.27, 0.29, 0.69, 0.72
94, -179874.34, -179740.36, -179752.77, -179621.88, -179648.05, -76490.53, -180112.42, -180002.59, 0.29, 0.69, 0.72
95, -179861.67, -179724.98, -179735.53, -179785.78, -179842.11, -76633.02, -180071.25, -180015.53, 0.29, 0.69, 0.72
96, -179830.44, -179730.95, -179755.45, -179778.11, -180085.16, -76752.67, -180104.34, -179996.92, 0.29, 0.69, 0.72
97, -179749.13, -179733.03, -179754.91, -179664.55, -180222.73, -76835.82, -180125.02, -179993.42, 0.28, 0.69, 0.72
98, -179631.86, -179735.05, -179750.13, -179590.56, -180148.91, -76921.78, -180116.55, -179994.14, 0.28, 0.69, 0.72
99, -179794.56, -179721.03, -179728.47, -179759.27, -180133.80, -77082.52, -180069.69, -180007.13, 0.28, 0.69, 0.72
100, -179995.39, -179718.72, -179733.66, -179783.17, -180124.00, -77249.75, -180073.78, -179989.47, 0.28, 0.69, 0.72
101, -179956.89, -179726.28, -179744.70, -179691.56, -180054.56, -77357.80, -180107.94, -179979.59, 0.28, 0.69, 0.72
102, -179886.59, -179722.56, -179736.66, -179587.78, -179972.70, -77453.06, -180098.45, -179984.98, 0.28, 0.69, 0.72
103, -179870.94, -179712.20, -179724.61, -179716.09, -179960.42, -77616.81, -180061.00, -180019.30, 0.29, 0.69, 0.71
104, -179870.89, -179719.39, -179728.88, -179796.05, -179962.03, -77795.83, -180064.70, -180010.94, 0.29, 0.69, 0.71
105, -179822.45, -179714.59, -179738.66, -179717.91, -179903.34, -77915.05, -180092.77, -179980.05, 0.29, 0.69, 0.71
106, -179752.81, -179713.25, -179733.13, -179605.05, -179771.00, -78007.14, -180097.09, -179975.70, 0.29, 0.69, 0.71
107, -179717.14, -179696.55, -179720.42, -179662.11, -179672.80, -78132.13, -180063.34, -179996.41, 0.29, 0.69, 0.71
108, -179697.84, -179696.52, -179721.63, -179768.41, -179832.20, -78275.05, -180062.20, -179988.05, 0.30, 0.70, 0.71
109, -179586.52, -179720.77, -179735.44, -179671.08, -179975.17, -78344.41, -180114.42, -179964.13, 0.30, 0.70, 0.71
110, -179616.20, -179727.95, -179735.94, -179535.55, -180151.08, -78379.70, -180121.14, -179959.78, 0.30, 0.70, 0.71
111, -179831.69, -179690.83, -179710.20, -179653.66, -180178.33, -78486.16, -180050.83, -179969.89, 0.30, 0.70, 0.71
112, -179998.44, -179685.67, -179703.38, -179775.81, -180186.17, -78672.13, -180037.55, -179968.34, 0.30, 0.70, 0.71
113, -179970.25, -179686.05, -179711.86, -179715.97, -180142.61, -78807.42, -180059.55, -179953.64, 0.30, 0.71, 0.70
114, -179903.33, -179696.27, -179711.11, -179606.55, -180062.61, -78904.67, -180080.05, -179943.73, 0.30, 0.71, 0.70
115, -179853.80, -179683.67, -179696.55, -179613.06, -180008.53, -79025.73, -180050.16, -179959.20, 0.30, 0.71, 0.70
116, -179861.63, -179689.89, -179693.30, -179767.00, -180023.94, -79218.49, -180036.45, -179968.69, 0.30, 0.71, 0.70
117, -179837.70, -179684.69, -179704.95, -179731.75, -179995.22, -79368.77, -180046.89, -179946.16, 0.30, 0.71, 0.70
118, -179776.11, -179685.64, -179703.27, -179632.78, -179920.58, -79470.77, -180070.16, -179944.64, 0.30, 0.71, 0.70
119, -179724.81, -179667.70, -179689.33, -179559.20, -179861.08, -79587.20, -180045.53, -179950.73, 0.30, 0.71, 0.70
120, -179722.25, -179667.88, -179683.39, -179708.89, -179866.36, -79769.02, -180027.02, -179966.67, 0.30, 0.71, 0.70
121, -179703.59, -179670.67, -179701.17, -179736.66, -179845.45, -79926.23, -180039.55, -179945.63, 0.30, 0.71, 0.70
122, -179601.00, -179685.20, -179710.72, -179632.83, -179702.88, -80021.08, -180078.64, -179942.38, 0.30, 0.71, 0.70
123, -179552.72, -179695.55, -179704.08, -179538.75, -179561.77, -80073.02, -180079.59, -179939.81, 0.30, 0.72, 0.71
124, -179773.33, -179660.25, -179678.16, -179688.95, -179699.56, -80181.78, -180018.95, -179949.81, 0.30, 0.72, 0.71
125, -179917.98, -179671.78, -179695.17, -179703.48, -179871.20, -80295.82, -180046.95, -179931.36, 0.30, 0.72, 0.71
126, -179852.72, -179674.92, -179687.14, -179589.27, -180076.28, -80363.62, -180058.97, -179925.13, 0.30, 0.72, 0.71
127, -179773.02, -179669.39, -179683.00, -179512.17, -180159.61, -80442.85, -180061.33, -179926.28, 0.30, 0.72, 0.71
128, -179749.02, -179653.55, -179661.22, -179686.42, -180144.53, -80596.90, -180018.53, -179957.84, 0.30, 0.72, 0.71
129, -179749.80, -179658.28, -179667.94, -179740.66, -180147.61, -80778.80, -180014.33, -179950.36, 0.30, 0.72, 0.71
130, -179704.88, -179649.66, -179676.97, -179664.30, -180093.09, -80902.65, -180025.95, -179919.89, 0.30, 0.72, 0.71
131, -179615.13, -179652.52, -179671.81, -179554.23, -180013.30, -80999.27, -180042.84, -179920.55, 0.30, 0.72, 0.71
132, -179585.63, -179639.38, -179651.95, -179604.95, -179977.06, -81138.70, -180000.09, -179932.13, 0.30, 0.72, 0.71
133, -179827.64, -179637.36, -179656.14, -179712.38, -179972.73, -81310.48, -179996.45, -179920.22, 0.30, 0.72, 0.71
134, -179894.13, -179650.67, -179671.19, -179640.31, -179916.77, -81431.67, -180029.91, -179913.72, 0.30, 0.71, 0.71
135, -179825.72, -179654.38, -179670.48, -179527.13, -179833.53, -81524.43, -180039.55, -179901.92, 0.30, 0.71, 0.71
136, -179778.19, -179639.36, -179656.28, -179589.83, -179783.45, -81650.83, -180007.23, -179928.42, 0.30, 0.71, 0.71
137, -179784.28, -179643.84, -179652.66, -179721.92, -179796.58, -81842.92, -179993.92, -179943.41, 0.30, 0.71, 0.71
138, -179755.89, -179631.27, -179657.64, -179672.64, -179751.73, -81987.70, -179995.70, -179907.86, 0.30, 0.71, 0.71
139, -179684.64, -179645.91, -179666.31, -179559.11, -179570.47, -82071.60, -180040.81, -179899.78, 0.29, 0.71, 0.70
140, -179615.69, -179619.33, -179648.94, -179544.52, -179564.44, -82147.82, -180007.48, -179906.03, 0.29, 0.71, 0.70
141, -179597.53, -179608.36, -179639.16, -179695.91, -179759.58, -82289.82, -179979.17, -179906.80, 0.29, 0.71, 0.70
142, -179502.58, -179635.05, -179664.14, -179641.17, -179941.80, -82385.98, -180025.44, -179886.88, 0.29, 0.71, 0.70
143, -179521.50, -179655.97, -179653.84, -179499.75, -180113.64, -82436.05, -180041.17, -179888.33, 0.29, 0.71, 0.70
144, -179697.61, -179633.94, -179645.09, -179491.20, -180070.77, -82510.14, -180003.33, -179886.98, 0.30, 0.70, 0.71
145, -179900.48, -179621.78, -179630.73, -179684.91, -180066.91, -82683.15, -179963.03, -179888.20, 0.30, 0.70, 0.71
146, -179907.91, -179617.66, -179637.33, -179681.39, -180051.67, -82846.83, -179976.69, -179876.58, 0.30, 0.70, 0.71
147, -179848.25, -179619.44, -179640.56, -179586.30, -179981.30, -82954.18, -180003.13, -179881.56, 0.30, 0.70, 0.71
148, -179785.67, -179613.77, -179627.13, -179499.95, -179909.50, -83059.55, -179989.78, -179883.64, 0.30, 0.70, 0.71
149, -179776.53, -179607.38, -179611.81, -179642.95, -179905.77, -83234.20, -179959.16, -179908.33, 0.30, 0.70, 0.71
150, -179771.30, -179612.00, -179625.66, -179687.67, -179902.17, -83410.29, -179965.44, -179894.30, 0.30, 0.70, 0.71
151, -179718.88, -179610.86, -179635.69, -179602.77, -179839.69, -83526.68, -179991.86, -179875.44, 0.30, 0.70, 0.71
152, -179655.73, -179602.77, -179609.61, -179503.30, -179765.63, -83629.74, -179978.56, -179878.25, 0.30, 0.70, 0.71
153, -179642.66, -179594.06, -179601.98, -179502.72, -179756.33, -83796.84, -179950.00, -179904.17, 0.30, 0.70, 0.71
154, -179635.17, -179596.31, -179621.23, -179645.33, -179753.53, -83971.01, -179956.23, -179892.23, 0.29, 0.69, 0.71
155, -179565.11, -179594.94, -179630.33, -179599.86, -179644.78, -84086.41, -179989.20, -179869.72, 0.29, 0.69, 0.71
156, -179460.08, -179617.05, -179632.31, -179470.11, -179478.16, -84144.13, -180015.38, -179862.38, 0.29, 0.69, 0.71
157, -179598.25, -179595.48, -179606.97, -179540.22, -179568.00, -84218.40, -179953.11, -179866.88, 0.29, 0.69, 0.71
158, -179827.73, -179587.34, -179608.42, -179649.61, -179748.67, -84344.82, -179953.78, -179849.89, 0.29, 0.69, 0.71
159, -179808.25, -179603.14, -179616.88, -179560.36, -179939.67, -84418.58, -179986.97, -179854.58, 0.29, 0.70, 0.71
160, -179726.30, -179596.08, -179610.19, -179442.06, -180084.73, -84488.52, -179980.84, -179846.47, 0.29, 0.70, 0.71
161, -179674.92, -179576.61, -179596.75, -179537.63, -180054.03, -84607.02, -179943.03, -179854.17, 0.29, 0.70, 0.71
162, -179679.88, -179579.81, -179591.19, -179674.84, -180065.02, -84790.73, -179930.58, -179884.84, 0.29, 0.70, 0.71
163, -179652.28, -179571.14, -179598.27, -179626.28, -180031.00, -84930.19, -179939.67, -179855.78, 0.29, 0.70, 0.71
164, -179591.61, -179571.05, -179596.44, -179527.58, -179957.73, -85027.04, -179961.89, -179844.03, 0.29, 0.70, 0.71
165, -179543.20, -179552.09, -179578.80, -179473.27, -179902.70, -85141.79, -179931.30, -179859.88, 0.29, 0.71, 0.71
166, -179545.33, -179556.52, -179576.33, -179624.27, -179911.78, -85321.43, -179916.56, -179876.58, 0.29, 0.71, 0.71
167, -179481.66, -179572.20, -179597.02, -179616.27, -179883.30, -85464.89, -179939.94, -179844.56, 0.29, 0.71, 0.71
168, -179454.94, -179599.77, -179607.64, -179493.08, -179790.67, -85540.03, -179986.17, -179826.66, 0.29, 0.71, 0.71
169, -179619.69, -179578.83, -179590.27, -179444.41, -179694.36, -85610.53, -179959.83, -179834.58, 0.29, 0.71, 0.71
170, -179836.83, -179558.23, -179567.52, -179621.73, -179685.53, -85770.30, -179913.08, -179864.84, 0.29, 0.71, 0.71
171, -179855.56, -179558.47, -179581.00, -179625.03, -179647.00, -85926.74, -179916.97, -179842.59, 0.29, 0.71, 0.71
172, -179791.92, -179576.88, -179594.97, -179523.48, -179475.27, -86007.88, -179963.30, -179812.89, 0.29, 0.71, 0.71
173, -179699.89, -179574.89, -179588.69, -179425.52, -179490.45, -86043.87, -179958.25, -179828.30, 0.29, 0.71, 0.71
174, -179664.70, -179551.09, -179563.45, -179579.20, -179663.56, -86152.54, -179896.72, -179851.92, 0.29, 0.71, 0.71
175, -179643.58, -179548.89, -179569.81, -179609.69, -179925.72, -86278.83, -179912.31, -179830.23, 0.29, 0.71, 0.70
176, -179577.78, -179551.33, -179575.58, -179512.73, -180059.33, -86368.68, -179942.95, -179812.94, 0.29, 0.71, 0.70
177, -179458.28, -179556.31, -179573.39, -179411.03, -179983.42, -86448.90, -179944.05, -179806.50, 0.29, 0.71, 0.70
178, -179526.95, -179541.59, -179549.92, -179539.52, -179941.58, -86574.56, -179890.09, -179825.75, 0.29, 0.71, 0.70
179, -179780.89, -179533.75, -179551.02, -179613.11, -179935.92, -86736.86, -179884.02, -179814.61, 0.29, 0.71, 0.70
180, -179791.48, -179541.08, -179562.16, -179535.58, -179878.58, -86847.92, -179918.19, -179802.88, 0.29, 0.71, 0.69
181, -179720.02, -179549.86, -179562.48, -179423.44, -179794.44, -86930.09, -179931.97, -179797.52, 0.29, 0.71, 0.69
182, -179680.13, -179535.73, -179542.69, -179500.39, -179753.95, -87054.03, -179894.23, -179824.58, 0.29, 0.71, 0.69
183, -179685.28, -179539.91, -179542.48, -179617.47, -179763.73, -87231.88, -179884.75, -179830.38, 0.29, 0.71, 0.69
184, -179647.88, -179530.45, -179554.39, -179556.98, -179718.55, -87354.77, -179900.28, -179795.19, 0.29, 0.71, 0.69
185, -179577.95, -179537.25, -179553.14, -179445.28, -179584.69, -87435.51, -179926.34, -179794.03, 0.29, 0.70, 0.70
186, -179520.20, -179514.77, -179540.77, -179434.88, -179456.58, -87518.32, -179898.13, -179802.66, 0.29, 0.70, 0.70
187, -179498.30, -179505.38, -179533.94, -179588.45, -179612.05, -87645.57, -179872.27, -179806.19, 0.29, 0.70, 0.70
188, -179398.89, -179533.11, -179554.81, -179528.92, -179762.36, -87718.03, -179919.72, -179785.05, 0.29, 0.70, 0.70
189, -179425.97, -179547.95, -179554.48, -179383.14, -179943.19, -87741.34, -179942.59, -179774.31, 0.29, 0.70, 0.70
190, -179604.03, -179524.75, -179538.45, -179419.41, -179976.73, -87801.47, -179902.92, -179775.08, 0.30, 0.70, 0.71
191, -179801.05, -179509.88, -179520.52, -179605.25, -179974.56, -87960.95, -179860.30, -179776.50, 0.30, 0.70, 0.71
192, -179796.42, -179506.14, -179527.70, -179582.00, -179946.20, -88098.30, -179869.23, -179768.09, 0.30, 0.70, 0.71
193, -179733.03, -179512.08, -179527.81, -179484.55, -179868.42, -88186.05, -179893.22, -179767.81, 0.30, 0.70, 0.71
194, -179681.17, -179502.86, -179508.16, -179401.48, -179805.30, -88285.38, -179861.67, -179758.83, 0.30, 0.70, 0.71
195, -179691.91, -179513.31, -179507.45, -179397.06, -179820.42, -88464.31, -179853.06, -179766.53, 0.30, 0.70, 0.71
196, -179680.19, -179514.67, -179521.25, -179353.78, -179806.30, -88613.06, -179868.30, -179761.06, 0.30, 0.70, 0.72
197, -179601.36, -179513.64, -179540.20, -179379.98, -179714.14, -88683.45, -179905.36, -179757.30, 0.30, 0.70, 0.72
198, -179518.75, -179499.08, -179524.91, -179505.38, -179618.81, -88750.70, -179891.70, -179770.22, 0.30, 0.70, 0.72
199, -179515.02, -179493.16, -179512.94, -179530.30, -179616.73, -88914.95, -179853.59, -179800.44, 0.30, 0.70, 0.72
200, -179514.59, -179498.56, -179515.41, -179509.84, -179609.11, -89079.23, -179854.92, -179789.05, 0.30, 0.70, 0.72
201, -179428.88, -179489.89, -179520.31, -179416.66, -179448.47, -89172.02, -179881.05, -179751.97, 0.30, 0.70, 0.71
202, -179346.50, -179507.64, -179529.67, -179321.27, -179367.88, -89191.15, -179914.30, -179744.20, 0.30, 0.70, 0.71
203, -179510.14, -179483.50, -179497.69, -179472.52, -179485.22, -89251.81, -179851.78, -179762.84, 0.30, 0.70, 0.71
204, -179729.41, -179473.81, -179497.52, -179537.14, -179663.36, -89364.95, -179837.64, -179750.44, 0.30, 0.70, 0.71
205, -179699.48, -179489.86, -179503.33, -179437.89, -179860.17, -89428.19, -179874.97, -179738.81, 0.30, 0.70, 0.71
206, -179617.31, -179488.50, -179499.59, -179322.88, -179978.13, -89491.15, -179880.28, -179738.13, 0.29, 0.70, 0.72
207, -179571.83, -179467.05, -179481.50, -179440.45, -179943.56, -89607.96, -179830.50, -179752.59, 0.29, 0.70, 0.72
208, -179577.08, -179470.84, -179477.95, -179564.45, -179953.31, -89785.08, -179820.27, -179753.33, 0.29, 0.70, 0.72
209, -179542.13, -179464.31, -179492.25, -179505.13, -179909.75, -89910.02, -179834.19, -179729.48, 0.29, 0.70, 0.72
210, -179476.77, -179462.78, -179489.11, -179396.92, -179829.81, -89996.79, -179855.86, -179728.52, 0.29, 0.70, 0.72
211, -179428.25, -179439.27, -179472.05, -179393.53, -179775.67, -90108.46, -179828.81, -179748.31, 0.29, 0.70, 0.72
212, -179433.50, -179447.36, -179469.61, -179545.36, -179786.89, -90287.12, -179814.61, -179766.33, 0.29, 0.70, 0.72
213, -179365.56, -179461.45, -179484.92, -179507.75, -179753.13, -90420.60, -179829.55, -179737.91, 0.29, 0.70, 0.72
214, -179349.03, -179482.02, -179491.23, -179387.19, -179661.75, -90494.68, -179861.98, -179713.63, 0.29, 0.70, 0.72
215, -179526.45, -179463.72, -179478.63, -179335.58, -179573.17, -90569.69, -179843.09, -179718.86, 0.29, 0.70, 0.72
216, -179733.55, -179443.95, -179456.09, -179515.77, -179566.44, -90730.47, -179799.81, -179733.98, 0.29, 0.71, 0.72
217, -179739.30, -179444.45, -179466.98, -179515.22, -179508.34, -90876.31, -179804.84, -179710.55, 0.29, 0.71, 0.72
218, -179667.92, -179461.34, -179477.84, -179405.59, -179340.02, -90945.02, -179850.48, -179703.77, 0.29, 0.71, 0.72
219, -179581.98, -179454.89, -179468.23, -179310.73, -179388.81, -90988.16, -179841.86, -179701.33, 0.29, 0.71, 0.72
220, -179552.31, -179436.02, -179444.94, -179458.91, -179568.41, -91100.97, -179792.22, -179725.66, 0.29, 0.71, 0.72
221, -179526.67, -179434.13, -179457.86, -179477.33, -179833.13, -91221.02, -179803.39, -179708.64, 0.30, 0.70, 0.70
222, -179460.39, -179434.25, -179457.44, -179378.58, -179942.31, -91310.29, -179819.83, -179700.59, 0.30, 0.70, 0.70
223, -179340.58, -179440.38, -179462.91, -179290.88, -179862.11, -91389.89, -179830.11, -179692.38, 0.30, 0.70, 0.70
224, -179432.27, -179413.63, -179438.81, -179439.28, -179823.33, -91518.19, -179770.14, -179721.97, 0.30, 0.70, 0.70
225, -179670.72, -179414.50, -179441.11, -179491.19, -179813.31, -91675.23, -179776.22, -179705.89, 0.30, 0.70, 0.70
226, -179661.02, -179431.89, -179449.61, -179406.31, -179751.22, -91778.61, -179815.44, -179684.19, 0.30, 0.70, 0.70
227, -179587.03, -179434.86, -179448.78, -179298.80, -179664.86, -91859.03, -179819.89, -179690.67, 0.29, 0.70, 0.70
228, -179555.53, -179413.80, -179427.77, -179414.52, -179632.38, -91994.81, -179779.52, -179720.53, 0.29, 0.70, 0.70
229, -179560.81, -179421.63, -179432.00, -179508.63, -179641.45, -92172.42, -179773.55, -179723.02, 0.29, 0.70, 0.70
230, -179522.77, -179413.98, -179440.95, -179440.61, -179594.05, -92292.27, -179788.03, -179683.19, 0.29, 0.70, 0.70
231, -179454.89, -179417.00, -179437.00, -179328.17, -179457.83, -92375.40, -179807.22, -179678.20, 0.29, 0.70, 0.70
232, -179401.75, -179394.25, -179422.44, -179325.72, -179343.11, -92468.70, -179768.30, -179698.00, 0.28, 0.70, 0.70
233, -179372.72, -179389.33, -179423.13, -179469.86, -179499.81, -92596.95, -179758.56, -179700.63, 0.28, 0.70, 0.70
234, -179275.00, -179424.44, -179445.97, -179396.08, -179630.92, -92663.20, -179820.52, -179668.70, 0.28, 0.70, 0.70
235, -179328.33, -179431.39, -179441.45, -179253.55, -179791.84, -92679.60, -179825.83, -179657.08, 0.28, 0.70, 0.70
236, -179519.86, -179403.31, -179419.77, -179331.75, -179891.92, -92745.07, -179777.44, -179667.41, 0.28, 0.70, 0.70
237, -179694.88, -179392.38, -179407.08, -179477.39, -179904.14, -92914.05, -179747.41, -179687.13, 0.28, 0.70, 0.70
238, -179682.77, -179389.75, -179412.16, -179436.89, -179875.36, -93055.34, -179755.63, -179661.50, 0.28, 0.70, 0.70
239, -179618.14, -179401.73, -179418.16, -179332.08, -179797.61, -93144.99, -179785.06, -179657.59, 0.28, 0.70, 0.70
240, -179552.67, -179390.88, -179402.94, -179277.28, -179723.08, -93235.83, -179767.56, -179674.52, 0.28, 0.70, 0.70
241, -179547.52, -179384.70, -179387.41, -179446.30, -179723.16, -93401.74, -179736.78, -179705.27, 0.28, 0.70, 0.70
242, -179533.50, -179384.95, -179404.22, -179450.50, -179705.88, -93552.75, -179743.30, -179679.61, 0.27, 0.70, 0.71
243, -179476.25, -179391.94, -179411.13, -179359.02, -179636.53, -93648.80, -179776.44, -179653.45, 0.27, 0.70, 0.71
244, -179422.25, -179376.78, -179381.28, -179273.44, -179571.83, -93748.89, -179750.67, -179643.73, 0.27, 0.70, 0.71
245, -179431.28, -179386.06, -179377.19, -179265.19, -179584.50, -93926.12, -179738.47, -179645.23, 0.27, 0.70, 0.71
246, -179420.55, -179388.41, -179401.52, -179229.48, -179573.89, -94079.63, -179748.44, -179640.98, 0.27, 0.70, 0.71
247, -179299.30, -179385.53, -179424.53, -179281.92, -179429.27, -94145.52, -179791.59, -179634.80, 0.28, 0.71, 0.72
248, -179240.31, -179391.16, -179417.05, -179377.13, -179241.50, -94168.34, -179788.50, -179636.05, 0.28, 0.71, 0.72
249, -179463.36, -179364.11, -179379.89, -179357.45, -179363.67, -94262.49, -179711.58, -179625.52, 0.28, 0.71, 0.72
250, -179627.08, -179368.66, -179386.69, -179311.28, -179544.00, -94376.80, -179740.45, -179624.20, 0.28, 0.71, 0.72
251, -179554.91, -179394.06, -179407.75, -179213.31, -179684.80, -94416.25, -179786.50, -179630.53, 0.28, 0.71, 0.72
252, -179449.19, -179386.73, -179400.44, -179300.23, -179848.44, -94445.52, -179776.92, -179625.47, 0.30, 0.70, 0.72
253, -179412.66, -179363.25, -179373.56, -179447.42, -179865.28, -94570.45, -179720.80, -179660.20, 0.30, 0.70, 0.72
254, -179422.94, -179372.91, -179372.23, -179462.19, -179877.64, -94748.15, -179716.89, -179672.38, 0.30, 0.70, 0.72
255, -179388.88, -179351.22, -179375.81, -179398.02, -179833.81, -94867.82, -179717.73, -179629.36, 0.30, 0.70, 0.72
0, -179288.41, -179353.88, -179378.59, -179291.09, -179752.67, -94949.76, -179746.67, -179614.16, 0.30, 0.70, 0.72
1, -179277.77, -179346.19, -179359.64, -179253.25, -179692.80, -95052.78, -179704.91, -179626.38, 0.30, 0.70, 0.72
2, -179532.02, -179335.53, -179356.30, -179400.81, -179684.86, -95208.73, -179689.25, -179626.22, 0.30, 0.71, 0.72
3, -179593.33, -179347.83, -179372.34, -179368.77, -179639.27, -95327.26, -179724.16, -179609.77, 0.30, 0.71, 0.72
4, -179527.11, -179354.58, -179371.56, -179258.50, -179559.84, -95409.42, -179738.13, -179599.88, 0.30, 0.71, 0.72
5, -179466.33, -179346.17, -179362.39, -179256.77, -179491.86, -95500.62, -179715.22, -179624.06, 0.30, 0.71, 0.72
6, -179466.38, -179343.22, -179355.17, -179431.63, -179497.38, -95667.84, -179689.06, -179644.55, 0.30, 0.71, 0.72
7, -179444.69, -179339.91, -179363.06, -179409.59, -179462.91, -95805.54, -179701.14, -179614.45, 0.29, 0.71, 0.73
8, -179371.67, -179345.86, -179368.58, -179305.06, -179284.83, -95881.00, -179735.95, -179594.41, 0.29, 0.71, 0.73
9, -179244.80, -179347.16, -179357.86, -179203.47, -179250.95, -95924.77, -179728.09, -179600.44, 0.29, 0.71, 0.73
10, -179341.94, -179321.13, -179341.09, -179331.81, -179411.44, -96020.97, -179675.59, -179595.81, 0.29, 0.71, 0.73
11, -179541.63, -179334.39, -179356.50, -179335.53, -179578.83, -96103.16, -179712.88, -179584.91, 0.29, 0.71, 0.73
12, -179505.95, -179338.64, -179353.28, -179214.56, -179788.13, -96155.88, -179726.80, -179579.63, 0.28, 0.70, 0.73
13, -179422.77, -179326.72, -179347.78, -179211.45, -179795.64, -96220.75, -179711.02, -179585.95, 0.28, 0.70, 0.73
14, -179409.88, -179310.47, -179322.92, -179385.22, -179785.73, -96373.63, -179666.36, -179621.41, 0.28, 0.70, 0.73
15, -179407.20, -179315.52, -179330.44, -179390.02, -179783.56, -96536.55, -179668.88, -179610.88, 0.28, 0.70, 0.73
16, -179354.97, -179310.00, -179339.23, -179306.38, -179721.03, -96637.52, -179693.52, -179581.27, 0.28, 0.70, 0.73
17, -179254.03, -179309.48, -179332.20, -179196.20, -179638.81, -96717.36, -179693.98, -179577.63, 0.29, 0.70, 0.73
18, -179257.59, -179296.33, -179314.61, -179269.45, -179602.16, -96840.88, -179653.30, -179580.55, 0.29, 0.70, 0.73
19, -179505.09, -179296.41, -179319.34, -179376.19, -179589.67, -96988.55, -179654.67, -179567.19, 0.29, 0.70, 0.73
20, -179544.89, -179311.41, -179331.14, -179298.48, -179527.08, -97086.95, -179692.84, -179569.13, 0.29, 0.70, 0.73
21, -179474.38, -179311.55, -179325.25, -179185.75, -179444.30, -97165.47, -179694.66, -179557.75, 0.29, 0.70, 0.73
22, -179431.97, -179296.02, -179311.03, -179261.14, -179400.95, -97282.32, -179662.78, -179591.20, 0.28, 0.69, 0.72
23, -179434.67, -179301.42, -179311.41, -179390.47, -179402.20, -97452.51, -179652.41, -179598.36, 0.28, 0.69, 0.72
24, -179391.11, -179301.42, -179324.55, -179325.53, -179255.58, -97557.38, -179679.44, -179567.58, 0.28, 0.69, 0.72
25, -179292.45, -179304.70, -179319.77, -179196.09, -179200.13, -97597.84, -179700.89, -179555.56, 0.28, 0.69, 0.72
26, -179186.22, -179293.42, -179304.33, -179188.59, -179311.28, -97646.79, -179661.55, -179562.75, 0.28, 0.69, 0.72
27, -179365.80, -179273.14, -179298.89, -179339.59, -179498.11, -97750.61, -179637.19, -179553.28, 0.28, 0.70, 0.71
28, -179505.72, -179286.63, -179304.86, -179284.36, -179737.30, -97832.09, -179664.33, -179544.56, 0.28, 0.70, 0.71
29, -179448.14, -179290.63, -179302.63, -179168.47, -179768.61, -97906.98, -179675.56, -179529.58, 0.28, 0.70, 0.71
30, -179383.42, -179276.83, -179294.28, -179188.98, -179697.77, -97995.32, -179643.00, -179538.34, 0.28, 0.70, 0.71
31, -179385.89, -179277.22, -179283.69, -179355.38, -179706.13, -98166.78, -179620.69, -179541.88, 0.28, 0.70, 0.71
32, -179363.84, -179272.78, -179290.31, -179326.72, -179682.09, -98304.87, -179635.55, -179529.58, 0.28, 0.70, 0.71
33, -179298.83, -179268.83, -179296.28, -179225.80, -179607.53, -98390.81, -179657.86, -179531.23, 0.29, 0.70, 0.71
34, -179187.88, -179272.73, -179290.67, -179153.66, -179527.34, -98471.70, -179659.11, -179535.94, 0.29, 0.70, 0.71
35, -179274.91, -179257.13, -179271.78, -179307.83, -179507.19, -98611.84, -179617.55, -179551.31, 0.29, 0.70, 0.71
36, -179506.31, -179258.39, -179285.53, -179320.03, -179485.73, -98752.48, -179624.41, -179529.27, 0.29, 0.70, 0.71
37, -179492.13, -179269.41, -179289.11, -179222.45, -179404.80, -98842.36, -179651.94, -179524.27, 0.29, 0.70, 0.71
38, -179415.75, -179266.92, -179284.39, -179125.02, -179220.86, -98908.50, -179653.41, -179522.30, 0.29, 0.70, 0.72
39, -179377.89, -179242.41, -179263.48, -179268.73, -179240.13, -99011.79, -179597.69, -179544.19, 0.29, 0.70, 0.72
40, -179351.02, -179250.86, -179276.34, -179325.45, -179417.16, -99121.31, -179621.23, -179524.83, 0.29, 0.70, 0.72
41, -179271.36, -179255.94, -179278.86, -179217.64, -179597.88, -99170.84, -179650.95, -179508.86, 0.29, 0.70, 0.72
42, -179140.94, -179253.77, -179274.81, -179106.41, -179735.69, -99221.54, -179652.05, -179506.72, 0.29, 0.70, 0.72
43, -179225.13, -179240.83, -179247.80, -179234.72, -179708.83, -99331.13, -179597.56, -179522.81, 0.29, 0.69, 0.72
44, -179476.44, -179234.44, -179248.20, -179318.36, -179705.97, -99489.22, -179589.88, -179514.55, 0.29, 0.69, 0.72
45, -179480.13, -179241.73, -179265.72, -179241.61, -179649.56, -99595.59, -179620.41, -179505.80, 0.29, 0.69, 0.72
46, -179407.64, -179245.78, -179260.92, -179128.70, -179564.98, -99673.94, -179629.45, -179501.16, 0.29, 0.69, 0.72
47, -179365.45, -179230.63, -179245.31, -179207.67, -179520.42, -99790.09, -179596.03, -179507.09, 0.29, 0.69, 0.72
48, -179369.80, -179236.00, -179245.27, -179319.75, -179530.97, -99962.32, -179586.38, -179506.47, 0.29, 0.69, 0.73
49, -179333.53, -179231.56, -179253.50, -179260.17, -179488.39, -100080.42, -179600.31, -179487.86, 0.29, 0.69, 0.73
50, -179265.30, -179230.25, -179253.58, -179150.48, -179408.91, -100160.22, -179619.22, -179488.80, 0.29, 0.69, 0.73
51, -179213.52, -179205.86, -179235.81, -179149.41, -179352.48, -100263.24, -179589.20, -179508.44, 0.29, 0.69, 0.73
52, -179219.91, -179213.08, -179232.34, -179304.39, -179364.89, -100435.57, -179575.73, -179522.00, 0.29, 0.69, 0.73
53, -179168.98, -179217.88, -179249.86, -179268.58, -179303.39, -100565.08, -179590.53, -179491.28, 0.28, 0.69, 0.73
54, -179082.27, -179249.78, -179259.11, -179137.77, -179113.58, -100611.05, -179644.73, -179479.70, 0.28, 0.69, 0.73
55, -179187.33, -179234.20, -179246.50, -179084.77, -179132.84, -100629.20, -179615.69, -179477.78, 0.28, 0.69, 0.73
56, -179420.59, -179198.73, -179219.98, -179257.20, -179302.94, -100728.67, -179553.77, -179473.42, 0.28, 0.69, 0.73
57, -179454.78, -179216.33, -179237.53, -179235.25, -179484.91, -100815.04, -179596.28, -179466.83, 0.28, 0.69, 0.73
58, -179375.36, -179219.36, -179233.06, -179115.97, -179691.30, -100869.09, -179602.36, -179463.45, 0.29, 0.69, 0.73
59, -179300.44, -179210.47, -179225.47, -179073.70, -179686.06, -100941.52, -179591.92, -179468.88, 0.29, 0.69, 0.73
60, -179291.92, -179202.00, -179206.31, -179259.11, -179682.45, -101098.30, -179551.64, -179482.88, 0.29, 0.69, 0.73
61, -179284.88, -179202.02, -179216.02, -179273.77, -179675.67, -101251.39, -179557.09, -179470.11, 0.29, 0.69, 0.73
62, -179229.20, -179191.11, -179223.86, -179185.59, -179609.61, -101343.61, -179580.44, -179464.16, 0.29, 0.69, 0.73
63, -179164.69, -179176.25, -179208.56, -179079.80, -179532.83, -101427.18, -179576.56, -179465.19, 0.29, 0.69, 0.73
64, -179145.56, -179158.59, -179195.73, -179152.05, -179516.78, -101572.07, -179537.41, -179489.53, 0.28, 0.69, 0.73
65, -179112.81, -179182.11, -179208.95, -179261.00, -179513.14, -101730.83, -179548.42, -179478.38, 0.28, 0.69, 0.73
66, -179057.34, -179211.41, -179222.06, -179169.14, -179439.66, -101817.94, -179586.72, -179452.19, 0.28, 0.69, 0.73
67, -179180.27, -179206.36, -179221.00, -179049.56, -179330.55, -101867.80, -179596.73, -179448.42, 0.28, 0.69, 0.73
68, -179406.69, -179181.17, -179194.13, -179181.61, -179285.91, -101982.45, -179540.63, -179441.20, 0.28, 0.69, 0.73
69, -179489.11, -179181.84, -179195.20, -179269.41, -179286.00, -102151.36, -179534.64, -179441.77, 0.28, 0.69, 0.72
70, -179438.95, -179183.27, -179207.50, -179191.11, -179132.73, -102247.29, -179563.00, -179445.63, 0.28, 0.69, 0.72
71, -179348.56, -179195.19, -179210.67, -179059.64, -179082.69, -102280.28, -179592.73, -179435.19, 0.28, 0.69, 0.72
72, -179277.22, -179171.75, -179188.05, -179114.77, -179205.13, -102337.68, -179544.20, -179444.64, 0.28, 0.69, 0.72
73, -179263.28, -179157.97, -179176.72, -179253.25, -179448.00, -102465.45, -179516.33, -179435.23, 0.28, 0.69, 0.72
74, -179216.77, -179165.36, -179195.14, -179190.22, -179666.58, -102560.88, -179549.34, -179429.78, 0.28, 0.69, 0.72
75, -179122.78, -179167.52, -179190.17, -179076.02, -179623.00, -102636.05, -179560.94, -179430.41, 0.28, 0.69, 0.72
76, -179059.19, -179164.11, -179177.77, -179055.06, -179551.95, -102724.34, -179539.63, -179441.05, 0.28, 0.69, 0.72
77, -179294.48, -179148.31, -179165.97, -179220.06, -179543.33, -102873.92, -179507.34, -179443.95, 0.28, 0.69, 0.72
78, -179413.47, -179158.38, -179183.80, -179194.16, -179507.69, -102997.88, -179527.08, -179424.06, 0.28, 0.69, 0.72
79, -179352.48, -179162.61, -179181.80, -179088.03, -179430.02, -103080.92, -179546.59, -179414.11, 0.28, 0.69, 0.72
80, -179284.98, -179157.58, -179172.16, -179048.02, -179354.44, -103165.39, -179534.25, -179423.19, 0.28, 0.69, 0.72
81, -179282.31, -179153.58, -179157.09, -179216.33, -179358.38, -103329.97, -179501.78, -179431.86, 0.28, 0.69, 0.72
82, -179267.31, -179151.84, -179171.17, -179209.36, -179342.03, -103475.92, -179512.58, -179415.84, 0.28, 0.69, 0.72
83, -179207.77, -179148.67, -179174.17, -179111.70, -179248.63, -103564.99, -179537.78, -179412.31, 0.28, 0.69, 0.72
84, -179133.89, -179137.48, -179166.58, -179026.94, -179069.19, -103629.61, -179528.72, -179411.17, 0.29, 0.70, 0.72
85, -179106.44, -179116.08, -179145.81, -179171.05, -179162.88, -103740.45, -179479.97, -179418.72, 0.29, 0.70, 0.72
86, -179036.89, -179139.44, -179168.20, -179181.05, -179337.05, -103843.81, -179520.91, -179404.02, 0.29, 0.70, 0.72
87, -179001.64, -179165.47, -179169.63, -179046.34, -179499.28, -103873.07, -179559.20, -179396.66, 0.29, 0.70, 0.72
88, -179123.83, -179150.48, -179167.02, -178972.17, -179606.03, -103900.85, -179551.95, -179388.48, 0.29, 0.70, 0.72
89, -179353.30, -179132.19, -179145.69, -179156.31, -179581.84, -104014.89, -179495.03, -179414.34, 0.30, 0.71, 0.73
90, -179449.20, -179126.14, -179140.28, -179219.91, -179583.78, -104176.94, -179481.23, -179406.77, 0.30, 0.71, 0.73
91, -179403.05, -179130.77, -179153.36, -179142.88, -179527.47, -104280.85, -179506.42, -179386.84, 0.30, 0.71, 0.73
92, -179338.23, -179125.06, -179134.81, -179043.22, -179450.02, -104362.51, -179505.61, -179393.13, 0.30, 0.71, 0.73
93, -179321.84, -179115.97, -179114.67, -179006.58, -179433.30, -104505.38, -179472.55, -179418.27, 0.30, 0.71, 0.73
94, -179331.81, -179132.66, -179128.42, -178993.02, -179448.05, -104680.19, -179483.27, -179426.77, 0.30, 0.71, 0.73
95, -179276.81, -179132.86, -179160.30, -178967.08, -179386.17, -104776.08, -179515.03, -179396.86, 0.28, 0.69, 0.71
96, -179184.00, -179128.13, -179150.55, -179092.42, -179281.34, -104829.14, -179517.67, -179381.48, 0.28, 0.69, 0.71
97, -179144.33, -179102.08, -179122.73, -179129.59, -179239.02, -104944.86, -179472.08, -179414.97, 0.28, 0.69, 0.71
98, -179157.98, -179117.53, -179125.31, -179131.39, -179259.83, -105123.05, -179470.69, -179439.66, 0.28, 0.69, 0.71
99, -179129.91, -179102.83, -179128.95, -179076.11, -179217.63, -105250.78, -179473.03, -179401.28, 0.28, 0.69, 0.71
100, -179012.86, -179113.00, -179146.91, -178964.16, -179031.23, -105314.80, -179522.97, -179369.41, 0.27, 0.69, 0.71
101, -178995.92, -179119.41, -179138.30, -179017.11, -178992.23, -105341.29, -179501.63, -179368.52, 0.27, 0.69, 0.71
102, -179237.94, -179094.38, -179113.86, -179164.41, -179163.28, -105442.18, -179449.55, -179371.42, 0.27, 0.69, 0.71
103, -179341.66, -179109.50, -179129.78, -179105.78, -179319.36, -105517.84, -179493.69, -179358.84, 0.27, 0.69, 0.71
104, -179261.77, -179112.05, -179120.70, -178977.36, -179521.16, -105559.17, -179506.19, -179353.56, 0.27, 0.69, 0.71
105, -179185.14, -179094.00, -179115.72, -178965.88, -179575.89, -105629.36, -179478.56, -179362.42, 0.29, 0.68, 0.71
106, -179177.20, -179082.17, -179102.48, -179160.83, -179574.56, -105786.89, -179443.70, -179399.00, 0.29, 0.68, 0.71
107, -179167.08, -179082.08, -179106.31, -179166.02, -179562.78, -105936.78, -179441.70, -179378.27, 0.29, 0.68, 0.71
108, -179113.39, -179080.81, -179109.48, -179079.98, -179498.63, -106034.70, -179467.84, -179343.94, 0.29, 0.68, 0.71
109, -179008.09, -179083.95, -179097.41, -178974.25, -179421.78, -106118.45, -179465.81, -179354.30, 0.29, 0.68, 0.71
110, -179076.05, -179069.55, -179086.02, -179012.48, -179399.14, -106254.18, -179419.41, -179368.66, 0.28, 0.70, 0.72
111, -179304.84, -179074.02, -179101.81, -179118.80, -179376.55, -106389.25, -179440.56, -179350.95, 0.28, 0.70, 0.72
112, -179296.36, -179086.78, -179103.92, -179037.47, -179305.63, -106476.84, -179468.08, -179348.41, 0.28, 0.70, 0.72
113, -179223.86, -179087.72, -179100.41, -178939.95, -179222.19, -106552.41, -179468.16, -179332.98, 0.28, 0.70, 0.72
114, -179193.81, -179070.25, -179078.30, -179081.09, -179194.47, -106684.27, -179420.63, -179366.17, 0.28, 0.70, 0.72
115, -179196.56, -179074.33, -179085.39, -179160.64, -179200.36, -106850.43, -179421.94, -179364.78, 0.29, 0.70, 0.72
116, -179152.64, -179070.13, -179095.72, -179085.92, -179082.94, -106954.39, -179447.75, -179337.31, 0.29, 0.70, 0.72
117, -179042.45, -179085.44, -179103.97, -178958.92, -178949.33, -106998.27, -179478.94, -179329.53, 0.29, 0.70, 0.72
118, -178978.61, -179069.72, -179076.66, -179008.95, -179054.05, -107055.94, -179422.00, -179332.53, 0.29, 0.70, 0.72
119, -179200.23, -179053.31, -179075.69, -179117.39, -179229.48, -107158.20, -179413.92, -179320.39, 0.29, 0.70, 0.72
120, -179267.33, -179064.48, -179080.98, -179029.02, -179429.72, -107215.77, -179448.06, -179318.20, 0.29, 0.70, 0.72
121, -179190.33, -179066.13, -179078.84, -178908.36, -179552.23, -107274.04, -179451.67, -179312.66, 0.29, 0.70, 0.72
122, -179132.66, -179048.00, -179067.39, -178987.63, -179504.66, -107370.76, -179419.22, -179324.75, 0.29, 0.70, 0.72
123, -179137.27, -179048.69, -179058.34, -179137.20, -179514.77, -107541.66, -179398.78, -179341.36, 0.29, 0.70, 0.72
124, -179111.83, -179041.84, -179067.39, -179094.55, -179484.64, -107672.08, -179406.41, -179311.92, 0.29, 0.70, 0.72
125, -179039.64, -179043.50, -179067.44, -178994.11, -179409.16, -107756.80, -179433.39, -179306.22, 0.29, 0.70, 0.72
126, -178943.83, -179038.31, -179051.66, -178921.63, -179341.97, -107847.88, -179401.17, -179312.59, 0.28, 0.70, 0.71
127, -179113.70, -179025.94, -179041.98, -179063.16, -179329.94, -107993.97, -179371.41, -179317.02, 0.28, 0.70, 0.71
128, -179289.58, -179036.48, -179060.17, -179065.20, -179293.44, -108116.79, -179410.94, -179298.22, 0.28, 0.70, 0.71
129, -179243.13, -179039.17, -179057.56, -178959.50, -179217.16, -108199.45, -179423.77, -179291.03, 0.28, 0.70, 0.71
130, -179174.11, -179036.06, -179056.16, -178907.69, -179139.77, -108280.56, -179422.28, -179296.69, 0.28, 0.70, 0.71
131, -179164.92, -179027.98, -179043.22, -179086.06, -179136.02, -108436.45, -179385.06, -179317.63, 0.29, 0.68, 0.70
132, -179155.19, -179031.19, -179051.81, -179101.55, -179099.38, -108586.73, -179389.63, -179303.47, 0.29, 0.68, 0.70
133, -179088.97, -179036.70, -179059.58, -179001.23, -178931.83, -108657.73, -179423.84, -179292.83, 0.29, 0.68, 0.70
134, -178955.48, -179042.67, -179058.13, -178887.67, -178956.06, -108685.16, -179434.03, -179289.69, 0.29, 0.68, 0.70
135, -178985.97, -179010.67, -179034.38, -179011.56, -179106.69, -108764.52, -179367.48, -179289.61, 0.29, 0.68, 0.70
136, -179214.11, -179022.53, -179044.70, -179045.69, -179305.16, -108856.81, -179394.92, -179275.89, 0.30, 0.68, 0.71
137, -179222.89, -179026.30, -179038.45, -178938.66, -179508.89, -108920.34, -179407.97, -179282.05, 0.30, 0.68, 0.71
138, -179145.14, -179018.61, -179035.03, -178852.50, -179475.27, -108988.87, -179402.38, -179273.64, 0.30, 0.68, 0.71
139, -179109.91, -179002.52, -179009.73, -179016.92, -179440.53, -109113.93, -179366.47, -179300.95, 0.30, 0.68, 0.71
140, -179114.64, -179008.97, -179017.55, -179099.84, -179448.50, -109283.24, -179360.25, -179306.16, 0.30, 0.68, 0.71
141, -179075.20, -179001.08, -179032.97, -179030.06, -179400.66, -109396.59, -179374.36, -179267.89, 0.30, 0.69, 0.71
142, -179010.89, -178996.19, -179017.44, -178931.20, -179323.64, -109478.23, -179384.67, -179261.77, 0.30, 0.69, 0.71
143, -178987.53, -178979.02, -178988.30, -178885.31, -179297.94, -109610.47, -179351.55, -179288.50, 0.30, 0.69, 0.71
144, -178996.81, -178996.39, -178999.88, -178874.39, -179314.11, -109786.04, -179357.16, -179306.56, 0.30, 0.69, 0.71
145, -178904.94, -178997.75, -179038.94, -178841.17, -179257.05, -109887.85, -179393.00, -179271.13, 0.30, 0.69, 0.71
146, -178855.97, -179018.38, -179043.69, -178950.94, -179114.00, -109924.02, -179421.47, -179253.97, 0.29, 0.70, 0.71
147, -179031.25, -178994.33, -179011.81, -178983.63, -178939.36, -109988.17, -179366.75, -179279.63, 0.29, 0.70, 0.71
148, -179258.70, -178978.33, -178998.55, -178963.27, -179060.13, -110116.54, -179335.50, -179289.28, 0.29, 0.70, 0.71
149, -179243.38, -178996.66, -179015.77, -178877.73, -179219.91, -110196.27, -179372.98, -179253.58, 0.29, 0.70, 0.71
150, -179141.78, -179007.25, -179025.75, -178847.61, -179406.03, -110221.23, -179402.25, -179238.31, 0.29, 0.70, 0.71
151, -179065.50, -178982.80, -178999.61, -178998.48, -179462.19, -110290.79, -179355.28, -179259.70, 0.28, 0.70, 0.73
152, -179071.16, -178984.66, -178991.48, -179065.31, -179476.70, -110460.98, -179328.17, -179284.92, 0.28, 0.70, 0.73
153, -179056.89, -178978.59, -178992.81, -179027.67, -179460.55, -110603.71, -179328.63, -179259.17, 0.28, 0.70, 0.73
154, -178996.92, -178969.56, -179001.92, -178934.17, -179393.22, -110695.80, -179356.73, -179231.97, 0.28, 0.70, 0.73
155, -178883.33, -178977.94, -178996.78, -178854.05, -179312.77, -110773.16, -179361.39, -179237.97, 0.28, 0.70, 0.73
156, -178982.84, -178969.94, -178976.77, -178996.70, -179290.88, -110909.22, -179321.69, -179255.47, 0.28, 0.70, 0.73
157, -179212.80, -178962.08, -178985.09, -179015.70, -179271.64, -111049.85, -179323.50, -179237.78, 0.28, 0.70, 0.73
158, -179197.95, -178969.55, -178990.03, -178922.64, -179204.34, -111140.58, -179347.58, -179225.75, 0.28, 0.70, 0.73
159, -179124.11, -178969.98, -178984.03, -178830.20, -179120.97, -111216.38, -179351.16, -179228.33, 0.28, 0.70, 0.73
160, -179101.33, -178953.56, -178961.00, -178981.91, -179101.59, -111356.56, -179305.83, -179234.94, 0.28, 0.70, 0.73
161, -179099.34, -178958.67, -178971.17, -179044.73, -179102.31, -111516.41, -179309.63, -179225.59, 0.28, 0.70, 0.73
162, -179047.45, -178959.17, -178986.42, -178962.28, -178984.97, -111610.64, -179339.30, -179212.50, 0.28, 0.70, 0.72
163, -178948.22, -178966.33, -178990.84, -178838.38, -178839.30, -111652.01, -179358.48, -179208.02, 0.28, 0.70, 0.72
164, -178866.05, -178944.22, -178966.13, -178913.59, -178948.03, -111716.63, -179309.91, -179228.73, 0.28, 0.70, 0.72
165, -179060.11, -178945.44, -178967.95, -178994.42, -179121.22, -111816.19, -179315.45, -179210.88, 0.28, 0.70, 0.72
166, -179153.45, -178960.20, -178971.39, -178895.11, -179317.56, -111867.15, -179342.55, -179203.97, 0.28, 0.70, 0.72
167, -179080.92, -178948.64, -178966.66, -178780.11, -179439.27, -111923.45, -179333.77, -179195.14, 0.29, 0.70, 0.72
168, -179025.98, -178931.00, -178953.27, -178891.44, -179396.69, -112020.84, -179303.70, -179218.27, 0.29, 0.70, 0.72
169, -179026.47, -178931.66, -178944.64, -179033.56, -179403.97, -112183.29, -179287.25, -179249.63, 0.29, 0.70, 0.72
170, -178994.97, -178927.55, -178957.48, -178982.55, -179366.06, -112303.03, -179298.58, -179216.80, 0.29, 0.70, 0.72
171, -178931.92, -178924.05, -178951.45, -178885.52, -179291.09, -112386.55, -179312.81, -179196.81, 0.29, 0.70, 0.72
172, -178894.80, -178908.61, -178926.95, -178821.50, -179248.64, -112502.20, -179278.84, -179218.52, 0.29, 0.69, 0.71
173, -178908.59, -178928.03, -178932.77, -178819.14, -179269.61, -112680.98, -179280.83, -179241.30, 0.29, 0.69, 0.71
174, -178841.02, -178935.92, -178955.84, -178767.25, -179234.09, -112804.40, -179304.72, -179208.39, 0.29, 0.69, 0.71
175, -178774.78, -178955.84, -178973.47, -178830.25, -179120.66, -112845.37, -179356.19, -179182.02, 0.29, 0.69, 0.71
176, -178921.89, -178927.92, -178940.58, -178949.64, -179020.45, -112899.22, -179311.81, -179194.22, 0.29, 0.69, 0.71
177, -179172.11, -178913.70, -178921.39, -178972.69, -179022.73, -113057.63, -179271.73, -179227.86, 0.30, 0.70, 0.71
178, -179205.58, -178914.95, -178934.73, -178935.63, -178971.44, -113198.75, -179274.47, -179204.81, 0.30, 0.70, 0.71
179, -179136.70, -178928.70, -178945.84, -178825.27, -178808.45, -113261.23, -179312.14, -179176.50, 0.30, 0.70, 0.71
180, -179041.53, -178930.22, -178947.55, -178771.69, -178848.73, -113284.18, -179317.69, -179173.92, 0.30, 0.70, 0.71
181, -179005.30, -178898.23, -178919.66, -178955.03, -179023.83, -113380.31, -179262.55, -179196.83, 0.30, 0.70, 0.71
182, -178983.86, -178895.98, -178922.27, -178974.23, -179296.86, -113495.02, -179260.69, -179176.36, 0.30, 0.71, 0.73
183, -178920.39, -178901.17, -178927.97, -178880.63, -179408.44, -113574.93, -179287.06, -179161.63, 0.30, 0.71, 0.73
184, -178801.20, -178904.78, -178924.05, -178768.03, -179328.47, -113644.85, -179292.36, -179155.47, 0.30, 0.71, 0.73
185, -178866.77, -178890.89, -178908.47, -178871.91, -179286.67, -113758.95, -179236.98, -179173.72, 0.30, 0.71, 0.73
186, -179121.89, -178884.73, -178914.02, -178964.41, -179275.02, -113904.40, -179246.81, -179165.63, 0.30, 0.71, 0.73
187, -179137.27, -178899.84, -178921.95, -178883.70, -179213.00, -113999.34, -179277.17, -179157.63, 0.30, 0.71, 0.73
188, -179065.16, -178899.58, -178916.55, -178772.36, -179129.31, -114072.33, -179280.52, -179147.77, 0.30, 0.70, 0.72
189, -179027.16, -178880.95, -178898.34, -178866.05, -179091.94, -114190.21, -179238.50, -179167.83, 0.30, 0.70, 0.72
190, -179033.13, -178890.22, -178898.97, -178979.08, -179103.61, -114359.14, -179236.53, -179169.03, 0.30, 0.70, 0.72
191, -178995.02, -178883.31, -178913.06, -178914.59, -179056.73, -114469.25, -179259.33, -179146.75, 0.30, 0.70, 0.72
192, -178920.39, -178890.81, -178914.69, -178797.09, -178906.02, -114535.61, -179285.06, -179137.98, 0.30, 0.70, 0.72
193, -178857.53, -178859.23, -178889.14, -178804.11, -178804.83, -114607.07, -179244.64, -179156.53, 0.26, 0.69, 0.71
194, -178834.25, -178850.78, -178887.20, -178947.77, -178980.52, -114729.58, -179223.77, -179159.64, 0.26, 0.69, 0.71
195, -178734.05, -178884.11, -178909.28, -178877.86, -179141.53, -114793.28, -179271.58, -179136.86, 0.26, 0.69, 0.71
196, -178772.13, -178900.86, -178912.67, -178733.11, -179322.88, -114813.60, -179289.50, -179126.36, 0.26, 0.69, 0.71
197, -178951.23, -178871.70, -178887.70, -178785.66, -179315.66, -114870.77, -179249.73, -179129.27, 0.26, 0.69, 0.71
198, -179160.61, -178858.98, -178870.08, -178952.19, -179319.25, -115030.27, -179214.38, -179133.27, 0.28, 0.70, 0.71
199, -179159.66, -178860.78, -178886.03, -178921.03, -179293.55, -115163.07, -179226.67, -179123.67, 0.28, 0.70, 0.71
200, -179091.22, -178868.11, -178885.97, -178815.94, -179213.53, -115241.99, -179252.36, -179129.67, 0.28, 0.70, 0.71
201, -179023.81, -178861.14, -178876.59, -178740.95, -179138.61, -115323.62, -179239.66, -179131.39, 0.28, 0.70, 0.71
202, -179016.95, -178856.22, -178864.78, -178903.30, -179138.75, -115480.41, -179209.28, -179153.63, 0.28, 0.70, 0.71
203, -179007.00, -178854.00, -178871.97, -178926.92, -179128.86, -115629.88, -179204.86, -179133.69, 0.29, 0.70, 0.71
204, -178952.08, -178851.86, -178879.23, -178836.17, -179063.28, -115721.23, -179232.98, -179111.83, 0.29, 0.70, 0.71
205, -178880.88, -178847.45, -178871.80, -178737.75, -178981.72, -115794.84, -179231.95, -179121.38, 0.29, 0.70, 0.71
206, -178867.58, -178835.11, -178852.55, -178871.19, -178972.73, -115941.71, -179190.48, -179144.33, 0.29, 0.70, 0.71
207, -178864.36, -178842.66, -178864.28, -178925.02, -178969.09, -116097.35, -179200.17, -179133.16, 0.29, 0.70, 0.71
208, -178760.33, -178855.09, -178882.72, -178829.58, -178810.17, -116175.34, -179248.11, -179106.69, 0.29, 0.70, 0.72
209, -178725.23, -178866.31, -178877.81, -178690.86, -178707.00, -116186.29, -179264.61, -179100.59, 0.29, 0.70, 0.72
210, -178922.00, -178828.34, -178849.41, -178796.11, -178832.61, -116244.20, -179192.28, -179116.53, 0.29, 0.70, 0.72
211, -179099.58, -178825.28, -178851.02, -178890.39, -179021.22, -116351.60, -179188.23, -179101.92, 0.29, 0.70, 0.72
212, -179048.53, -178841.42, -178856.89, -178795.23, -179233.72, -116408.02, -179223.19, -179091.83, 0.29, 0.70, 0.72
213, -178965.63, -178837.84, -178851.59, -178680.63, -179329.52, -116461.52, -179223.25, -179078.39, 0.29, 0.69, 0.72
214, -178917.06, -178820.91, -178840.13, -178798.50, -179288.64, -116566.78, -179184.50, -179109.80, 0.29, 0.69, 0.72
215, -178923.56, -178826.88, -178834.06, -178924.97, -179300.45, -116736.20, -179172.45, -179125.02, 0.29, 0.69, 0.72
216, -178886.55, -178818.48, -178844.14, -178864.73, -179257.83, -116851.23, -179186.59, -179092.09, 0.29, 0.69, 0.72
217, -178801.80, -178820.13, -178845.48, -178753.72, -179176.20, -116924.81, -179209.48, -179080.88, 0.29, 0.69, 0.72
218, -178719.67, -178811.84, -178829.23, -178723.58, -179115.27, -117017.73, -179181.20, -179087.33, 0.29, 0.69, 0.72
219, -178931.09, -178802.38, -178820.08, -178866.81, -179111.16, -117169.80, -179157.66, -179089.25, 0.29, 0.70, 0.72
220, -179068.84, -178814.11, -178837.64, -178829.08, -179070.41, -117285.45, -179185.61, -179080.31, 0.29, 0.70, 0.72
221, -179006.83, -178818.33, -178834.30, -178714.97, -178988.45, -117358.34, -179203.09, -179070.75, 0.29, 0.70, 0.72
222, -178938.50, -178810.39, -178825.81, -178703.53, -178914.16, -117438.61, -179185.09, -179082.27, 0.29, 0.70, 0.72
223, -178937.83, -178807.63, -178812.55, -178887.11, -178920.30, -117602.16, -179154.97, -179111.92, 0.29, 0.70, 0.72
224, -178919.47, -178801.75, -178824.14, -178873.16, -178879.13, -117739.09, -179159.64, -179084.78, 0.29, 0.70, 0.73
225, -178844.80, -178810.78, -178832.25, -178763.70, -178700.20, -117801.67, -179203.34, -179059.55, 0.29, 0.70, 0.73
226, -178707.05, -178811.17, -178826.94, -178660.27, -178709.77, -117825.14, -179200.28, -179061.52, 0.29, 0.70, 0.73
227, -178783.75, -178781.38, -178802.81, -178804.66, -178873.53, -117912.47, -179139.55, -179065.63, 0.29, 0.70, 0.73
228, -179004.63, -178795.00, -178817.84, -178818.58, -179060.94, -117998.30, -179169.97, -179047.95, 0.29, 0.70, 0.73
229, -178981.78, -178801.81, -178819.97, -178697.86, -179268.41, -118047.09, -179183.25, -179039.80, 0.29, 0.70, 0.72
230, -178893.09, -178794.53, -178815.45, -178650.48, -179250.45, -118100.60, -179180.98, -179046.05, 0.29, 0.70, 0.72
231, -178874.03, -178780.91, -178791.03, -178840.19, -179234.13, -118239.80, -179133.63, -179059.34, 0.29, 0.70, 0.72
232, -178876.64, -178788.48, -178796.98, -178876.48, -179239.39, -118403.35, -179136.03, -179051.91, 0.29, 0.70, 0.72
233, -178825.95, -178773.02, -178805.28, -178794.59, -179179.78, -118501.45, -179156.06, -179039.59, 0.29, 0.70, 0.72
234, -178708.47, -178782.09, -178804.47, -178670.92, -179087.83, -118565.88, -179171.98, -179036.69, 0.30, 0.69, 0.71
235, -178720.31, -178772.47, -178787.59, -178727.69, -179039.80, -118670.34, -179127.95, -179048.95, 0.30, 0.69, 0.71
236, -178984.03, -178767.38, -178781.92, -178847.86, -179042.92, -118827.16, -179115.42, -179043.88, 0.30, 0.69, 0.71
237, -179020.50, -178770.39, -178796.94, -178781.25, -178992.27, -118932.17, -179147.58, -179032.02, 0.30, 0.69, 0.71
238, -178937.78, -178784.92, -178799.17, -178655.08, -178882.14, -118991.56, -179175.25, -179030.69, 0.30, 0.69, 0.71
239, -178876.41, -178762.92, -178779.28, -178705.67, -178719.11, -119071.77, -179133.13, -179052.67, 0.29, 0.70, 0.71
240, -178871.59, -178758.42, -178771.70, -178842.81, -178816.09, -119202.14, -179110.42, -179049.02, 0.29, 0.70, 0.71
241, -178819.50, -178763.61, -178791.73, -178773.78, -178968.22, -119271.34, -179151.03, -179021.73, 0.29, 0.70, 0.71
242, -178687.28, -178765.41, -178789.58, -178630.98, -179149.81, -119292.28, -179174.42, -179017.39, 0.29, 0.70, 0.71
243, -178635.34, -178758.34, -178771.13, -178642.42, -179232.42, -119348.59, -179131.39, -179028.34, 0.29, 0.70, 0.71
244, -178897.59, -178744.22, -178750.63, -178818.06, -179237.67, -119502.28, -179091.67, -179044.55, 0.28, 0.71, 0.71
245, -179019.98, -178740.45, -178764.50, -178792.78, -179212.30, -119633.30, -179101.11, -179015.66, 0.28, 0.71, 0.71
246, -178951.97, -178756.80, -178773.92, -178679.33, -179128.48, -119705.70, -179143.08, -179001.97, 0.28, 0.71, 0.71
247, -178873.72, -178747.81, -178760.59, -178621.48, -179042.66, -119774.70, -179128.38, -179013.23, 0.28, 0.71, 0.71
248, -178870.59, -178743.98, -178745.70, -178803.52, -179045.42, -119932.21, -179095.41, -179046.78, 0.28, 0.71, 0.71
249, -178863.17, -178743.56, -178754.52, -178815.36, -179036.55, -120079.65, -179092.88, -179027.50, 0.28, 0.71, 0.71
250, -178803.06, -178738.20, -178764.19, -178717.92, -178964.83, -120163.47, -179123.47, -178997.39, 0.30, 0.70, 0.71
251, -178723.25, -178730.83, -178762.78, -178617.23, -178875.23, -120227.19, -179117.47, -179004.47, 0.30, 0.70, 0.71
252, -178714.16, -178724.78, -178749.06, -178767.95, -178871.59, -120375.63, -179079.44, -179045.92, 0.30, 0.70, 0.71
253, -178716.14, -178732.25, -178750.67, -178820.91, -178876.17, -120536.45, -179081.67, -179037.89, 0.30, 0.70, 0.71
254, -178623.77, -178723.42, -178755.56, -178733.23, -178762.03, -120627.58, -179107.70, -178986.89, 0.30, 0.70, 0.71
255, -178567.34, -178738.48, -178762.14, -178590.08, -178577.56, -120643.78, -179145.47, -178979.13, 0.30, 0.70, 0.72
0, -178754.00, -178711.22, -178727.61, -178683.95, -178676.91, -120704.18, -179074.34, -178998.83, 0.30, 0.70, 0.72
1, -178966.88, -178706.33, -178735.19, -178771.13, -178860.80, -120812.72, -179073.59, -178987.16, 0.30, 0.70, 0.72
2, -178924.80, -178730.05, -178742.36, -178668.39, -179037.28, -120860.10, -179112.80, -178970.02, 0.30, 0.70, 0.72
3, -178825.38, -178726.17, -178737.81, -178546.64, -179178.64, -120892.65, -179119.41, -178967.70, 0.30, 0.70, 0.72
4, -178782.72, -178705.63, -178718.91, -178691.89, -179164.45, -121002.48, -179063.16, -178973.03, 0.28, 0.70, 0.72
5, -178796.50, -178718.53, -178722.69, -178813.33, -179183.52, -121177.16, -179064.20, -178977.55, 0.28, 0.70, 0.72
6, -178757.83, -178703.78, -178732.81, -178749.83, -179137.98, -121288.12, -179074.66, -178964.33, 0.28, 0.70, 0.72
7, -178641.08, -178710.48, -178736.23, -178624.55, -179043.81, -121348.80, -179104.05, -178960.88, 0.28, 0.70, 0.72
8, -178619.42, -178703.58, -178714.23, -178610.84, -178970.91, -121427.75, -179071.36, -178975.69, 0.28, 0.70, 0.72
9, -178886.69, -178693.25, -178703.27, -178766.67, -178974.38, -121585.10, -179043.75, -178983.13, 0.29, 0.70, 0.71
10, -178962.14, -178696.53, -178721.22, -178727.06, -178937.38, -121704.24, -179066.17, -178963.73, 0.29, 0.70, 0.71
11, -178887.02, -178705.77, -178720.56, -178606.09, -178849.06, -121770.38, -179091.89, -178951.80, 0.29, 0.70, 0.71
12, -178819.09, -178693.50, -178705.91, -178597.05, -178775.44, -121849.68, -179060.89, -178964.41, 0.29, 0.70, 0.71
13, -178828.28, -178699.03, -178700.94, -178769.00, -178791.39, -122021.74, -179041.31, -178996.88, 0.29, 0.70, 0.71
14, -178813.55, -178695.69, -178708.20, -178748.70, -178735.14, -122157.11, -179047.48, -178972.20, 0.29, 0.70, 0.73
15, -178728.14, -178699.70, -178721.08, -178628.86, -178565.38, -122203.66, -179097.95, -178945.33, 0.29, 0.70, 0.73
16, -178580.80, -178693.67, -178711.38, -178542.64, -178601.25, -122212.54, -179085.86, -178941.52, 0.29, 0.70, 0.73
17, -178700.63, -178661.91, -178687.38, -178711.41, -178770.63, -122304.67, -179019.23, -178944.50, 0.29, 0.70, 0.73
18, -178903.88, -178680.48, -178704.16, -178713.56, -178972.53, -122394.33, -179055.28, -178931.28, 0.29, 0.70, 0.73
19, -178858.30, -178687.45, -178699.23, -178592.36, -179165.16, -122442.49, -179073.13, -178935.31, 0.29, 0.70, 0.73
20, -178772.39, -178675.95, -178693.83, -178523.69, -179122.42, -122496.38, -179059.45, -178927.58, 0.29, 0.70, 0.73
21, -178759.41, -178662.66, -178680.17, -178716.63, -179112.81, -122640.62, -179018.48, -178940.89, 0.29, 0.70, 0.73
22, -178764.28, -178672.95, -178684.41, -178762.88, -179120.89, -122803.43, -179022.20, -178935.23, 0.29, 0.70, 0.73
23, -178710.03, -178659.59, -178689.81, -178677.81, -179058.19, -122895.19, -179036.22, -178916.41, 0.29, 0.70, 0.73
24, -178581.38, -178671.77, -178690.17, -178549.11, -178957.47, -122948.38, -179063.73, -178918.80, 0.29, 0.70, 0.73
25, -178622.42, -178659.08, -178663.13, -178626.00, -178914.27, -123055.45, -179008.39, -178945.42, 0.28, 0.70, 0.72
26, -178884.67, -178654.38, -178664.02, -178735.63, -178916.50, -123210.27, -179003.53, -178939.20, 0.28, 0.70, 0.72
27, -178904.91, -178656.34, -178680.59, -178659.98, -178859.19, -123308.52, -179037.67, -178919.09, 0.28, 0.70, 0.72
28, -178820.70, -178662.16, -178681.67, -178533.03, -178710.55, -123363.43, -179056.94, -178914.53, 0.28, 0.70, 0.72
29, -178764.89, -178641.03, -178663.23, -178607.39, -178590.91, -123442.69, -179009.89, -178929.08, 0.28, 0.70, 0.72
30, -178761.78, -178642.06, -178660.11, -178726.69, -178763.64, -123574.19, -178998.86, -178929.13, 0.28, 0.69, 0.72
31, -178704.31, -178645.34, -178674.00, -178647.47, -178951.56, -123639.01, -179028.19, -178905.77, 0.28, 0.69, 0.72
32, -178573.42, -178640.83, -178667.02, -178508.89, -179114.63, -123671.91, -179046.08, -178891.72, 0.28, 0.69, 0.72
33, -178539.02, -178638.52, -178654.20, -178550.27, -179071.27, -123736.44, -179011.92, -178914.73, 0.28, 0.69, 0.72
34, -178805.80, -178629.14, -178641.03, -178713.30, -179074.44, -123890.15, -178977.34, -178923.09, 0.28, 0.69, 0.72
35, -178899.94, -178626.70, -178652.55, -178674.81, -179041.78, -124011.88, -178991.47, -178898.31, 0.29, 0.70, 0.72
36, -178828.17, -178638.20, -178653.39, -178558.17, -178955.48, -124079.31, -179025.94, -178888.09, 0.29, 0.70, 0.72
37, -178758.30, -178623.53, -178638.53, -178513.91, -178877.34, -124153.68, -179003.81, -178900.83, 0.29, 0.70, 0.72
38, -178763.95, -178627.11, -178630.89, -178697.08, -178889.05, -124316.51, -178981.94, -178931.20, 0.29, 0.70, 0.72
39, -178751.97, -178625.30, -178641.53, -178696.00, -178875.17, -124456.72, -178979.52, -178905.50, 0.29, 0.70, 0.72
40, -178685.19, -178626.75, -178653.39, -178591.50, -178795.58, -124530.93, -179016.34, -178874.14, 0.29, 0.70, 0.71
41, -178604.14, -178611.86, -178638.06, -178496.17, -178635.11, -124587.41, -179001.80, -178888.89, 0.29, 0.70, 0.71
42, -178588.17, -178597.23, -178616.69, -178650.02, -178597.47, -124708.13, -178957.69, -178916.52, 0.29, 0.70, 0.71
43, -178535.22, -178607.31, -178634.59, -178672.28, -178761.78, -124810.10, -178981.00, -178889.39, 0.29, 0.70, 0.71
44, -178456.03, -178631.97, -178648.53, -178534.75, -178857.36, -124826.22, -179029.52, -178857.88, 0.29, 0.70, 0.71
45, -178540.16, -178612.89, -178634.73, -178435.22, -178986.91, -124811.24, -179018.98, -178856.70, 0.27, 0.70, 0.71
46, -178771.75, -178592.88, -178610.39, -178616.16, -179164.80, -124909.68, -178964.95, -178905.13, 0.27, 0.70, 0.71
47, -178899.44, -178588.33, -178610.73, -178681.66, -179184.97, -125066.43, -178946.97, -178903.06, 0.27, 0.70, 0.71
48, -178849.98, -178597.89, -178620.50, -178596.88, -179121.36, -125157.43, -178973.08, -178859.14, 0.27, 0.70, 0.71
49, -178763.13, -178607.06, -178619.52, -178472.33, -179020.95, -125209.17, -178991.17, -178850.92, 0.27, 0.70, 0.71
50, -178729.06, -178594.17, -178607.39, -178579.02, -178987.31, -125325.53, -178943.77, -178887.20, 0.28, 0.71, 0.72
51, -178740.72, -178607.00, -178608.22, -178685.45, -179003.73, -125494.06, -178944.38, -178899.05, 0.28, 0.71, 0.72
52, -178703.53, -178589.19, -178610.73, -178619.11, -178957.27, -125600.17, -178954.61, -178857.61, 0.28, 0.71, 0.72
53, -178623.48, -178589.11, -178613.45, -178494.23, -178863.97, -125657.05, -178985.03, -178845.55, 0.28, 0.71, 0.72
54, -178578.67, -178563.30, -178595.23, -178521.56, -178816.05, -125759.65, -178939.03, -178874.67, 0.28, 0.71, 0.72
55, -178592.02, -178579.25, -178597.31, -178670.98, -178833.95, -125929.45, -178936.97, -178901.34, 0.28, 0.71, 0.72
56, -178547.00, -178565.38, -178602.14, -178622.48, -178796.17, -126042.96, -178939.66, -178858.03, 0.29, 0.70, 0.73
57, -178430.38, -178583.70, -178614.22, -178489.98, -178649.69, -126092.35, -178995.41, -178831.73, 0.29, 0.70, 0.73
58, -178514.53, -178585.72, -178597.56, -178466.61, -178478.38, -126124.56, -178965.45, -178842.02, 0.29, 0.70, 0.73
59, -178769.97, -178565.22, -178574.98, -178633.08, -178626.23, -126231.36, -178916.14, -178846.50, 0.29, 0.70, 0.73
60, -178810.19, -178576.16, -178600.25, -178588.36, -178786.20, -126303.89, -178958.61, -178827.50, 0.29, 0.70, 0.73
61, -178713.56, -178583.41, -178595.28, -178447.52, -178974.59, -126323.54, -178975.69, -178820.75, 0.28, 0.69, 0.72
62, -178629.64, -178568.06, -178582.14, -178436.58, -179039.13, -126374.10, -178945.38, -178838.02, 0.28, 0.69, 0.72
63, -178633.06, -178566.34, -178570.94, -178636.91, -179051.03, -126533.13, -178913.27, -178868.48, 0.28, 0.69, 0.72
64, -178623.45, -178562.52, -178574.00, -178635.03, -179038.06, -126674.20, -178911.41, -178845.52, 0.28, 0.69, 0.72
65, -178545.08, -178548.95, -178584.95, -178534.98, -178962.64, -126751.17, -178945.83, -178811.92, 0.28, 0.69, 0.72
66, -178434.19, -178560.17, -178583.03, -178423.95, -178865.16, -126803.52, -178944.95, -178813.17, 0.29, 0.71, 0.73
67, -178630.16, -178539.61, -178561.27, -178567.36, -178845.83, -126932.16, -178892.69, -178829.53, 0.29, 0.71, 0.73
68, -178820.03, -178543.19, -178566.20, -178628.34, -178839.50, -127075.16, -178899.27, -178816.50, 0.29, 0.71, 0.73
69, -178772.02, -178555.92, -178576.94, -178531.22, -178766.16, -127150.40, -178939.28, -178809.33, 0.29, 0.71, 0.73
70, -178685.73, -178552.61, -178569.67, -178417.67, -178667.86, -127199.66, -178938.50, -178812.56, 0.29, 0.71, 0.73
71, -178665.64, -178537.30, -178554.72, -178559.41, -178648.97, -127329.50, -178898.81, -178840.81, 0.29, 0.71, 0.73
72, -178673.84, -178548.55, -178556.33, -178637.30, -178657.91, -127489.83, -178897.92, -178837.33, 0.29, 0.71, 0.73
73, -178623.92, -178538.83, -178565.27, -178555.42, -178526.66, -127576.96, -178916.81, -178797.83, 0.29, 0.71, 0.73
74, -178488.33, -178549.81, -178571.33, -178414.20, -178389.88, -127591.20, -178953.11, -178791.31, 0.29, 0.71, 0.73
75, -178463.67, -178517.25, -178537.06, -178490.97, -178506.02, -127641.55, -178883.84, -178804.56, 0.29, 0.71, 0.73
76, -178711.59, -178513.72, -178539.38, -178589.58, -178698.88, -127747.34, -178879.48, -178794.56, 0.28, 0.70, 0.72
77, -178744.44, -178534.08, -178550.38, -178496.13, -178909.72, -127797.84, -178918.28, -178782.23, 0.28, 0.70, 0.72
78, -178651.19, -178533.44, -178546.58, -178365.38, -179001.75, -127832.73, -178928.59, -178773.97, 0.28, 0.70, 0.72
79, -178592.88, -178513.00, -178529.69, -178465.75, -178950.08, -127919.50, -178879.86, -178803.38, 0.28, 0.70, 0.72
80, -178607.47, -178522.45, -178527.38, -178614.50, -178968.80, -128087.49, -178869.30, -178825.34, 0.28, 0.70, 0.72
81, -178581.38, -178509.14, -178531.13, -178567.25, -178936.30, -128204.84, -178866.94, -178786.03, 0.28, 0.70, 0.71
82, -178488.78, -178511.98, -178539.84, -178449.14, -178847.05, -128265.50, -178912.77, -178762.36, 0.28, 0.70, 0.71
83, -178397.53, -178505.86, -178522.80, -178398.75, -178768.17, -128332.76, -178880.20, -178774.52, 0.28, 0.70, 0.71
84, -178623.88, -178499.84, -178511.33, -178565.70, -178769.17, -128479.81, -178852.91, -178785.61, 0.28, 0.70, 0.71
85, -178773.42, -178500.17, -178524.03, -178550.44, -178740.17, -128600.40, -178865.45, -178760.84, 0.28, 0.70, 0.71
86, -178705.45, -178513.63, -178528.56, -178432.56, -178638.20, -128659.48, -178902.31, -178760.11, 0.28, 0.70, 0.71
87, -178621.19, -178498.72, -178515.53, -178365.86, -178446.00, -128705.25, -178883.39, -178765.00, 0.28, 0.70, 0.70
88, -178606.28, -178482.41, -178497.06, -178541.45, -178516.53, -128816.92, -178840.77, -178781.55, 0.28, 0.70, 0.70
89, -178579.80, -178490.97, -178514.64, -178538.69, -178696.69, -128907.67, -178859.69, -178755.34, 0.28, 0.70, 0.70
90, -178476.06, -178499.80, -178519.78, -178408.69, -178887.55, -128931.65, -178901.03, -178744.25, 0.28, 0.70, 0.70
91, -178351.53, -178490.77, -178510.91, -178329.16, -178957.77, -128960.15, -178877.89, -178752.08, 0.28, 0.70, 0.70
92, -178547.78, -178474.88, -178491.66, -178513.61, -178944.17, -129087.20, -178821.14, -178759.59, 0.28, 0.70, 0.71
93, -178754.94, -178477.17, -178496.63, -178550.33, -178939.98, -129233.11, -178831.50, -178747.03, 0.28, 0.70, 0.71
94, -178712.81, -178485.09, -178508.63, -178453.27, -178867.84, -129310.29, -178866.19, -178732.28, 0.28, 0.70, 0.71
95, -178622.94, -178491.02, -178509.11, -178341.67, -178766.45, -129357.81, -178876.73, -178730.28, 0.28, 0.70, 0.71
96, -178595.86, -178472.73, -178488.27, -178488.63, -178739.77, -129479.72, -178829.42, -178768.48, 0.28, 0.70, 0.71
97, -178607.44, -178485.89, -178491.81, -178569.56, -178751.61, -129641.66, -178828.64, -178769.41, 0.28, 0.69, 0.71
98, -178560.45, -178470.61, -178498.39, -178491.50, -178694.64, -129735.27, -178847.08, -178735.14, 0.28, 0.69, 0.71
99, -178476.66, -178470.11, -178496.16, -178364.28, -178599.42, -129787.05, -178868.89, -178734.13, 0.28, 0.69, 0.71
100, -178442.17, -178445.34, -178483.69, -178420.48, -178563.55, -129895.82, -178827.52, -178761.25, 0.28, 0.69, 0.71
101, -178458.27, -178463.78, -178487.08, -178555.52, -178582.52, -130061.47, -178826.69, -178773.97, 0.28, 0.69, 0.71
102, -178392.78, -178453.22, -178491.25, -178494.36, -178474.58, -130161.02, -178836.28, -178730.84, 0.28, 0.69, 0.71
103, -178292.44, -178466.09, -178500.91, -178343.53, -178310.63, -130170.23, -178890.39, -178713.52, 0.28, 0.69, 0.71
104, -178410.30, -178458.58, -178484.69, -178359.22, -178380.80, -130182.81, -178843.39, -178722.44, 0.28, 0.69, 0.71
105, -178667.14, -178444.20, -178465.08, -178517.77, -178570.14, -130286.88, -178801.59, -178717.95, 0.28, 0.69, 0.71
106, -178690.70, -178460.70, -178481.00, -178453.53, -178754.25, -130344.23, -178844.03, -178709.28, 0.28, 0.69, 0.71
107, -178597.23, -178459.58, -178470.88, -178316.25, -178924.64, -130373.74, -178848.48, -178700.73, 0.29, 0.70, 0.70
108, -178523.48, -178439.25, -178455.86, -178356.13, -178888.81, -130439.23, -178813.13, -178718.44, 0.29, 0.70, 0.70
109, -178537.44, -178446.36, -178452.86, -178543.14, -178906.19, -130604.34, -178792.84, -178740.97, 0.29, 0.70, 0.70
110, -178522.30, -178441.39, -178461.02, -178520.16, -178886.91, -130733.67, -178797.70, -178715.67, 0.29, 0.70, 0.70
111, -178440.72, -178435.98, -178467.28, -178411.64, -178804.58, -130800.05, -178829.23, -178695.27, 0.29, 0.70, 0.70
112, -178323.94, -178439.36, -178458.64, -178315.50, -178710.34, -130853.61, -178822.31, -178691.94, 0.29, 0.71, 0.71
113, -178513.56, -178428.58, -178441.66, -178468.59, -178699.11, -130987.61, -178783.03, -178703.83, 0.29, 0.71, 0.71
114, -178698.44, -178426.73, -178449.11, -178494.14, -178684.48, -131118.97, -178784.72, -178686.92, 0.29, 0.71, 0.71
115, -178645.34, -178432.05, -178455.92, -178388.31, -178602.66, -131186.67, -178814.00, -178684.36, 0.29, 0.71, 0.71
116, -178555.89, -178435.98, -178451.78, -178292.70, -178418.08, -131227.44, -178822.94, -178684.13, 0.29, 0.71, 0.71
117, -178529.39, -178422.48, -178426.69, -178456.61, -178406.13, -131326.03, -178779.17, -178709.77, 0.29, 0.71, 0.71
118, -178516.69, -178421.13, -178441.77, -178496.13, -178590.92, -131430.98, -178781.06, -178692.31, 0.29, 0.71, 0.71
119, -178430.30, -178419.23, -178447.84, -178381.53, -178777.88, -131462.66, -178818.95, -178673.27, 0.29, 0.71, 0.71
120, -178285.36, -178417.45, -178442.91, -178256.42, -178883.83, -131480.59, -178827.61, -178673.31, 0.29, 0.71, 0.71
121, -178407.81, -178408.42, -178426.84, -178398.83, -178851.98, -131575.89, -178767.17, -178695.91, 0.29, 0.71, 0.71
122, -178663.92, -178405.38, -178425.61, -178493.02, -178856.17, -131728.13, -178760.95, -178689.27, 0.29, 0.71, 0.71
123, -178656.92, -178407.19, -178432.98, -178413.78, -178796.78, -131817.20, -178782.30, -178666.97, 0.29, 0.70, 0.71
124, -178570.92, -178412.33, -178432.41, -178286.38, -178698.64, -131863.89, -178799.69, -178656.55, 0.29, 0.70, 0.71
125, -178526.17, -178400.80, -178416.69, -178369.81, -178650.31, -131957.88, -178771.53, -178688.36, 0.29, 0.70, 0.71
126, -178544.64, -178416.88, -178420.56, -178501.94, -178671.19, -132123.14, -178762.81, -178704.11, 0.29, 0.70, 0.71
127, -178509.94, -178401.25, -178420.98, -178443.84, -178629.61, -132228.27, -178761.94, -178666.66, 0.29, 0.70, 0.71
128, -178428.69, -178397.48, -178421.98, -178318.95, -178535.38, -132279.77, -178791.08, -178651.11, 0.29, 0.71, 0.71
129, -178372.44, -178373.39, -178400.83, -178311.59, -178473.36, -132362.73, -178754.67, -178671.44, 0.29, 0.71, 0.71
130, -178389.38, -178389.16, -178404.08, -178476.42, -178492.89, -132527.00, -178747.98, -178703.89, 0.29, 0.71, 0.71
131, -178350.98, -178380.02, -178413.56, -178440.50, -178393.83, -132638.64, -178752.19, -178667.19, 0.29, 0.71, 0.71
132, -178224.80, -178386.97, -178426.70, -178300.69, -178257.03, -132656.02, -178811.38, -178637.34, 0.29, 0.71, 0.71
133, -178281.00, -178384.44, -178411.94, -178252.83, -178314.98, -132649.17, -178787.66, -178648.39, 0.28, 0.71, 0.72
134, -178537.95, -178371.81, -178383.98, -178431.56, -178495.28, -132743.34, -178725.08, -178660.73, 0.28, 0.71, 0.72
135, -178634.52, -178382.88, -178404.56, -178406.55, -178718.66, -132819.25, -178754.31, -178634.89, 0.28, 0.71, 0.72
136, -178551.11, -178383.61, -178395.88, -178276.88, -178866.67, -132855.70, -178767.61, -178628.94, 0.28, 0.71, 0.72
137, -178462.77, -178378.73, -178388.08, -178233.91, -178794.41, -132901.34, -178760.34, -178640.33, 0.28, 0.71, 0.72
138, -178461.50, -178379.00, -178377.95, -178436.11, -178795.55, -133047.70, -178724.52, -178662.83, 0.28, 0.71, 0.72
139, -178461.44, -178381.94, -178385.16, -178456.75, -178793.31, -133190.39, -178724.52, -178648.38, 0.28, 0.71, 0.72
140, -178400.00, -178357.95, -178389.95, -178363.38, -178723.72, -133265.44, -178740.56, -178621.45, 0.28, 0.71, 0.72
141, -178272.86, -178365.27, -178384.55, -178244.34, -178627.31, -133313.20, -178752.53, -178617.75, 0.28, 0.71, 0.72
142, -178361.95, -178355.98, -178359.25, -178362.05, -178600.02, -133427.38, -178705.97, -178641.30, 0.28, 0.71, 0.72
143, -178606.34, -178356.83, -178372.34, -178431.95, -178596.52, -133568.70, -178710.11, -178632.75, 0.28, 0.70, 0.71
144, -178588.31, -178359.73, -178384.17, -178337.66, -178521.70, -133643.11, -178737.02, -178615.13, 0.28, 0.70, 0.71
145, -178493.45, -178368.02, -178383.20, -178212.94, -178327.44, -133676.19, -178755.14, -178604.69, 0.28, 0.70, 0.71
146, -178445.61, -178347.00, -178355.47, -178334.17, -178298.20, -133748.47, -178700.64, -178628.14, 0.28, 0.70, 0.71
147, -178444.44, -178348.05, -178360.95, -178430.55, -178498.08, -133863.19, -178696.95, -178619.88, 0.28, 0.70, 0.71
148, -178376.34, -178343.73, -178373.00, -178336.09, -178693.31, -133908.25, -178734.67, -178602.53, 0.28, 0.70, 0.71
149, -178232.52, -178348.61, -178369.53, -178196.39, -178819.52, -133932.19, -178751.23, -178597.27, 0.26, 0.70, 0.71
150, -178266.23, -178340.56, -178354.28, -178278.61, -178769.89, -134003.47, -178707.98, -178612.72, 0.26, 0.70, 0.71
151, -178546.91, -178334.81, -178348.11, -178422.33, -178776.53, -134155.03, -178684.75, -178611.70, 0.26, 0.70, 0.71
152, -178594.28, -178333.44, -178358.89, -178362.44, -178728.66, -134254.55, -178704.00, -178588.02, 0.26, 0.70, 0.71
153, -178509.11, -178342.53, -178359.81, -178232.48, -178630.73, -134302.08, -178734.52, -178585.09, 0.26, 0.70, 0.71
154, -178445.17, -178322.41, -178344.16, -178248.47, -178560.33, -134374.13, -178697.25, -178600.31, 0.28, 0.69, 0.71
155, -178462.05, -178334.42, -178347.89, -178420.94, -178580.75, -134538.67, -178683.17, -178624.30, 0.28, 0.69, 0.71
156, -178443.73, -178329.19, -178347.14, -178389.98, -178556.88, -134660.47, -178684.31, -178596.48, 0.28, 0.69, 0.71
157, -178369.42, -178326.17, -178352.47, -178276.14, -178464.77, -134720.47, -178720.31, -178579.45, 0.28, 0.69, 0.71
158, -178257.97, -178317.31, -178339.63, -178202.31, -178283.66, -134771.16, -178700.27, -178587.17, 0.28, 0.69, 0.71
159, -178291.83, -178308.63, -178325.41, -178357.58, -178312.02, -134875.19, -178663.72, -178594.19, 0.30, 0.70, 0.71
160, -178501.61, -178326.39, -178346.50, -178330.80, -178457.42, -134938.39, -178707.98, -178574.89, 0.30, 0.70, 0.71
161, -178472.80, -178331.80, -178348.05, -178184.48, -178549.34, -134938.91, -178729.30, -178569.47, 0.30, 0.70, 0.71
162, -178361.48, -178316.38, -178332.69, -178170.89, -178713.92, -134936.50, -178704.98, -178564.70, 0.30, 0.70, 0.71
163, -178352.70, -178313.31, -178315.55, -178380.77, -178897.25, -135067.11, -178662.45, -178585.61, 0.30, 0.70, 0.71
164, -178357.27, -178316.94, -178321.09, -178405.00, -178908.11, -135215.05, -178660.23, -178574.36, 0.29, 0.70, 0.71
165, -178289.89, -178288.59, -178323.80, -178312.88, -178838.84, -135291.63, -178674.67, -178552.69, 0.29, 0.70, 0.71
166, -178164.67, -178300.86, -178322.39, -178184.84, -178739.31, -135334.80, -178689.09, -178550.95, 0.29, 0.70, 0.71
167, -178314.14, -178289.72, -178301.33, -178277.55, -178705.98, -135442.83, -178639.97, -178561.69, 0.29, 0.70, 0.71
168, -178548.13, -178288.84, -178303.97, -178372.70, -178703.78, -135585.14, -178640.36, -178551.81, 0.29, 0.70, 0.71
169, -178522.34, -178290.09, -178313.77, -178285.36, -178636.28, -135662.03, -178670.89, -178546.73, 0.27, 0.70, 0.72
170, -178433.33, -178295.59, -178310.13, -178158.63, -178535.83, -135705.19, -178681.53, -178543.42, 0.27, 0.70, 0.72
171, -178400.36, -178278.83, -178300.23, -178269.75, -178500.78, -135814.52, -178641.27, -178547.11, 0.27, 0.70, 0.72
172, -178419.39, -178296.53, -178305.42, -178389.78, -178520.66, -135980.19, -178643.56, -178551.78, 0.27, 0.70, 0.72
173, -178377.06, -178282.47, -178307.17, -178319.70, -178469.53, -136073.22, -178653.84, -178546.17, 0.27, 0.70, 0.72
174, -178281.58, -178284.42, -178308.64, -178191.05, -178315.22, -136117.84, -178679.19, -178543.47, 0.28, 0.70, 0.72
175, -178184.70, -178265.50, -178284.86, -178187.91, -178192.64, -136171.20, -178633.64, -178541.50, 0.28, 0.70, 0.72
176, -178375.59, -178260.91, -178285.02, -178324.58, -178352.20, -136271.52, -178622.23, -178527.83, 0.28, 0.70, 0.72
177, -178489.00, -178288.11, -178304.08, -178243.58, -178493.11, -136310.41, -178675.23, -178526.53, 0.28, 0.70, 0.72
178, -178395.13, -178285.64, -178300.23, -178105.67, -178678.88, -136315.47, -178678.31, -178511.91, 0.28, 0.70, 0.72
179, -178316.83, -178265.28, -178285.63, -178196.02, -178719.42, -136368.19, -178633.14, -178530.50, 0.28, 0.70, 0.72
180, -178334.22, -178275.58, -178288.77, -178369.08, -178739.94, -136530.13, -178615.84, -178549.17, 0.28, 0.70, 0.71
181, -178316.83, -178267.61, -178284.03, -178336.53, -178717.03, -136651.28, -178622.02, -178526.14, 0.28, 0.70, 0.71
182, -178225.41, -178254.69, -178288.02, -178226.20, -178633.19, -136711.44, -178649.02, -178515.70, 0.28, 0.70, 0.71
183, -178132.98, -178258.75, -178278.20, -178132.20, -178543.20, -136762.83, -178635.81, -178515.31, 0.28, 0.70, 0.71
184, -178359.58, -178244.27, -178264.36, -178285.22, -178532.97, -136894.66, -178590.36, -178539.16, 0.28, 0.70, 0.71
185, -178519.73, -178246.03, -178269.53, -178307.50, -178515.86, -137020.92, -178603.69, -178517.08, 0.29, 0.70, 0.72
186, -178457.69, -178257.34, -178274.94, -178196.34, -178434.39, -137082.03, -178645.34, -178503.95, 0.29, 0.70, 0.72
187, -178369.84, -178251.16, -178269.44, -178117.77, -178337.36, -137126.36, -178635.22, -178510.80, 0.29, 0.70, 0.72
188, -178363.98, -178246.78, -178264.13, -178296.66, -178333.14, -137263.13, -178598.34, -178544.50, 0.29, 0.70, 0.72
189, -178368.95, -178255.22, -178263.58, -178331.80, -178325.59, -137409.72, -178598.45, -178534.64, 0.29, 0.70, 0.72
190, -178307.53, -178240.11, -178266.11, -178237.14, -178155.48, -137473.44, -178619.91, -178493.02, 0.29, 0.71, 0.71
191, -178160.41, -178252.89, -178269.63, -178096.56, -178113.42, -137470.98, -178651.03, -178483.64, 0.29, 0.71, 0.71
192, -178190.14, -178232.11, -178246.39, -178196.61, -178252.30, -137521.11, -178584.59, -178496.23, 0.29, 0.71, 0.71
193, -178435.52, -178222.67, -178248.73, -178288.55, -178444.83, -137610.95, -178590.20, -178483.25, 0.29, 0.71, 0.71
194, -178435.28, -178236.20, -178252.83, -178183.98, -178661.91, -137647.73, -178620.63, -178480.44, 0.29, 0.71, 0.71
195, -178341.80, -178232.47, -178244.73, -178064.55, -178688.27, -137679.64, -178621.05, -178475.61, 0.29, 0.70, 0.71
196, -178302.34, -178215.97, -178230.59, -178207.25, -178647.86, -137779.97, -178564.13, -178481.41, 0.29, 0.70, 0.71
197, -178320.58, -178233.78, -178237.70, -178330.64, -178667.33, -137942.95, -178570.58, -178486.34, 0.29, 0.70, 0.71
198, -178280.39, -178210.25, -178238.81, -178263.47, -178618.44, -138038.80, -178584.20, -178477.73, 0.29, 0.70, 0.71
199, -178173.39, -178211.02, -178237.20, -178140.17, -178525.83, -138090.23, -178604.88, -178465.64, 0.29, 0.70, 0.71
200, -178121.52, -178208.02, -178218.64, -178116.44, -178455.97, -138161.17, -178574.83, -178484.63, 0.28, 0.70, 0.71
201, -178380.81, -178201.38, -178211.28, -178272.80, -178459.83, -138306.53, -178547.56, -178491.55, 0.28, 0.70, 0.71
202, -178476.64, -178200.14, -178226.30, -178233.34, -178420.36, -138411.47, -178574.36, -178463.19, 0.28, 0.70, 0.71
203, -178397.14, -178214.45, -178230.17, -178106.52, -178304.16, -138459.95, -178606.56, -178457.86, 0.28, 0.70, 0.71
204, -178319.84, -178195.55, -178215.92, -178099.70, -178122.20, -138504.34, -178568.42, -178464.64, 0.28, 0.70, 0.71
205, -178317.27, -178187.47, -178203.09, -178271.00, -178240.66, -138619.86, -178534.86, -178480.53, 0.28, 0.71, 0.72
206, -178280.03, -178195.36, -178221.94, -178231.06, -178416.17, -138694.30, -178574.03, -178455.63, 0.28, 0.71, 0.72
207, -178166.31, -178200.14, -178220.16, -178093.91, -178612.77, -138711.36, -178600.63, -178449.22, 0.28, 0.71, 0.72
208, -178055.16, -178196.02, -178206.70, -178045.66, -178638.88, -138739.94, -178579.34, -178446.73, 0.28, 0.71, 0.72
209, -178274.52, -178184.84, -178184.84, -178237.00, -178626.38, -138865.11, -178528.03, -178466.77, 0.28, 0.71, 0.72
210, -178453.61, -178177.80, -178193.95, -178249.75, -178612.89, -138996.69, -178533.45, -178446.06, 0.28, 0.71, 0.72
211, -178399.28, -178184.91, -178205.84, -178145.34, -178535.42, -139062.11, -178569.83, -178429.56, 0.29, 0.71, 0.72
212, -178312.88, -178190.84, -178200.08, -178045.23, -178438.78, -139105.14, -178570.97, -178438.95, 0.29, 0.71, 0.72
213, -178300.00, -178182.98, -178185.39, -178208.59, -178427.20, -139235.16, -178524.86, -178478.83, 0.29, 0.71, 0.72
214, -178306.97, -178191.08, -178190.56, -178266.83, -178434.08, -139384.83, -178527.48, -178471.25, 0.29, 0.71, 0.72
215, -178255.14, -178170.11, -178197.42, -178181.13, -178372.70, -139464.08, -178549.44, -178430.23, 0.29, 0.71, 0.72
216, -178169.09, -178163.67, -178196.19, -178055.64, -178275.70, -139506.59, -178567.88, -178428.61, 0.29, 0.71, 0.72
217, -178143.31, -178146.09, -178177.19, -178152.36, -178248.70, -139621.22, -178519.16, -178465.59, 0.29, 0.71, 0.72
218, -178155.63, -178164.91, -178184.56, -178256.56, -178255.09, -139779.06, -178522.69, -178472.02, 0.29, 0.71, 0.72
219, -178062.78, -178167.58, -178196.19, -178175.66, -178097.27, -139852.94, -178550.27, -178431.44, 0.29, 0.71, 0.72
220, -178013.38, -178180.20, -178200.27, -178019.77, -178018.45, -139840.42, -178586.72, -178413.50, 0.29, 0.71, 0.72
221, -178177.34, -178151.56, -178170.83, -178079.22, -178125.88, -139862.14, -178531.13, -178427.17, 0.29, 0.70, 0.72
222, -178408.58, -178137.94, -178162.27, -178217.63, -178322.75, -139962.91, -178501.67, -178424.72, 0.29, 0.70, 0.72
223, -178386.41, -178159.52, -178177.63, -178137.92, -178546.69, -140011.72, -178543.38, -178413.31, 0.29, 0.70, 0.72
224, -178294.06, -178155.41, -178169.70, -178002.72, -178625.23, -140041.70, -178547.30, -178398.56, 0.29, 0.70, 0.72
225, -178228.92, -178137.97, -178160.23, -178060.50, -178562.61, -140111.61, -178514.89, -178422.25, 0.29, 0.70, 0.72
226, -178244.36, -178148.47, -178159.17, -178233.83, -178581.17, -140273.42, -178498.20, -178443.06, 0.28, 0.70, 0.72
227, -178222.34, -178139.08, -178160.09, -178197.47, -178552.14, -140386.98, -178497.34, -178413.03, 0.28, 0.70, 0.72
228, -178139.28, -178139.83, -178167.17, -178082.69, -178467.86, -140442.84, -178532.94, -178394.42, 0.28, 0.70, 0.72
229, -178030.94, -178134.03, -178152.89, -178025.88, -178383.08, -140499.06, -178515.31, -178407.86, 0.28, 0.70, 0.72
230, -178232.33, -178125.97, -178139.78, -178191.36, -178381.69, -140637.89, -178478.50, -178425.41, 0.28, 0.70, 0.72
231, -178395.72, -178125.72, -178147.78, -178182.84, -178359.56, -140756.66, -178486.08, -178397.89, 0.29, 0.71, 0.72
232, -178332.50, -178138.66, -178155.94, -178068.31, -178263.14, -140811.22, -178525.20, -178383.66, 0.29, 0.71, 0.72
233, -178244.19, -178131.13, -178146.13, -177994.33, -178066.55, -140844.97, -178510.77, -178384.33, 0.29, 0.71, 0.72
234, -178227.42, -178116.70, -178130.03, -178169.42, -178123.61, -140947.06, -178467.70, -178402.20, 0.29, 0.71, 0.72
235, -178206.70, -178117.98, -178141.14, -178178.75, -178309.45, -141040.20, -178487.41, -178382.09, 0.29, 0.71, 0.72
236, -178115.91, -178113.69, -178140.14, -178060.41, -178512.94, -141068.66, -178509.50, -178366.53, 0.29, 0.72, 0.71
237, -177983.05, -178117.27, -178134.14, -177957.13, -178580.34, -141094.08, -178508.31, -178360.97, 0.29, 0.72, 0.71
238, -178142.14, -178109.00, -178117.94, -178121.36, -178556.25, -141202.42, -178453.66, -178356.34, 0.29, 0.72, 0.71
239, -178363.06, -178106.70, -178122.47, -178181.84, -178553.39, -141341.59, -178459.66, -178359.67, 0.29, 0.72, 0.71
240, -178326.28, -178107.45, -178133.23, -178087.00, -178481.95, -141412.31, -178492.58, -178369.73, 0.29, 0.72, 0.71
241, -178239.27, -178110.63, -178124.53, -177968.88, -178383.91, -141455.05, -178492.48, -178351.02, 0.29, 0.72, 0.71
242, -178212.48, -178095.66, -178105.28, -178095.97, -178356.09, -141568.77, -178440.39, -178342.58, 0.28, 0.71, 0.70
243, -178227.94, -178111.86, -178114.09, -178194.03, -178373.42, -141728.58, -178451.05, -178351.77, 0.28, 0.71, 0.70
244, -178183.67, -178091.92, -178119.28, -178119.70, -178320.67, -141818.39, -178468.09, -178357.77, 0.28, 0.71, 0.70
245, -178091.97, -178098.89, -178125.00, -177992.45, -178215.48, -141863.48, -178500.22, -178348.39, 0.28, 0.71, 0.70
246, -177997.08, -178084.05, -178102.42, -178044.14, -178056.63, -141934.33, -178449.02, -178357.84, 0.28, 0.71, 0.70
247, -178172.39, -178082.78, -178100.84, -178162.19, -178109.38, -142039.78, -178440.66, -178347.38, 0.27, 0.71, 0.71
248, -178304.28, -178101.59, -178117.77, -178070.42, -178232.52, -142074.56, -178487.50, -178340.97, 0.27, 0.71, 0.71
249, -178214.25, -178098.16, -178104.95, -177921.88, -178327.94, -142068.69, -178494.91, -178328.89, 0.27, 0.71, 0.71
250, -178131.59, -178078.84, -178090.13, -177973.77, -178539.52, -142099.84, -178452.14, -178336.83, 0.27, 0.71, 0.71
251, -178143.17, -178083.97, -178085.63, -178159.89, -178680.31, -142252.23, -178427.91, -178346.38, 0.27, 0.71, 0.71
252, -178123.89, -178074.73, -178088.33, -178130.34, -178657.33, -142369.75, -178431.67, -178327.33, 0.29, 0.71, 0.72
253, -178030.34, -178064.77, -178098.20, -178016.58, -178572.64, -142427.23, -178464.64, -178323.70, 0.29, 0.71, 0.72
254, -177942.00, -178074.23, -178089.22, -177939.45, -178483.28, -142477.80, -178454.67, -178333.05, 0.29, 0.71, 0.72
