%OpenBCI Raw EEG Data
%
%Sample Rate = 250.0 Hz
%First Column = SampleIndex
%Other Columns = EEG data in microvolts followed by Accel Data (in G) interleaved with Aux Data
0, 28547.98, 18653.40, 14723.56, -6316.20, -4119.45, -4324.77, -5782.19, 5770.35, -0.01, 0.39, 0.34
1, 28718.48, 18524.01, 14792.99, -6142.62, -4053.44, -4324.10, -5731.70, 5792.32, -0.01, 0.39, 0.34
2, 28760.84, 18661.98, 14906.85, -6111.03, -3943.59, -4216.08, -5624.39, 5894.33, -0.02, 0.79, 0.67
3, 28587.34, 18815.94, 14849.31, -6299.86, -3995.35, -4209.86, -5664.36, 5885.39, -0.02, 0.79, 0.67
4, 28522.35, 18698.82, 14712.48, -6364.93, -4120.12, -4325.08, -5785.50, 5781.32, -0.02, 0.79, 0.67
5, 28692.49, 18539.86, 14746.05, -6191.99, -4086.21, -4337.80, -5759.44, 5789.88, -0.02, 0.79, 0.67
6, 28758.36, 18642.34, 14874.42, -6128.94, -3979.37, -4242.27, -5654.23, 5873.01, -0.02, 0.79, 0.67
7, 28607.82, 18819.86, 14845.22, -6287.86, -4005.70, -4205.97, -5668.58, 5885.91, -0.01, 0.79, 0.67
8, 28509.94, 18749.49, 14723.74, -6378.09, -4123.81, -4297.68, -5789.01, 5793.24, -0.01, 0.79, 0.67
9, 28646.75, 18570.68, 14739.10, -6233.52, -4123.67, -4337.29, -5794.18, 5777.48, -0.01, 0.79, 0.67
10, 28768.33, 18629.26, 14868.16, -6123.75, -4003.73, -4251.70, -5682.39, 5855.15, -0.01, 0.79, 0.67
11, 28661.62, 18832.17, 14892.65, -6239.02, -3977.36, -4183.73, -5649.11, 5894.00, -0.01, 0.79, 0.67
12, 28510.05, 18817.69, 14752.31, -6383.90, -4118.96, -4274.08, -5779.13, 5797.64, 0.01, 0.78, 0.68
13, 28598.18, 18629.06, 14704.14, -6292.17, -4175.66, -4365.27, -5841.94, 5723.01, 0.01, 0.78, 0.68
14, 28761.84, 18632.84, 14832.26, -6135.78, -4051.12, -4286.98, -5721.17, 5798.98, 0.01, 0.78, 0.68
15, 28678.07, 18834.52, 14875.11, -6227.96, -4002.44, -4201.14, -5661.70, 5860.83, 0.01, 0.78, 0.68
16, 28509.18, 18855.55, 14743.03, -6395.53, -4127.27, -4271.57, -5783.67, 5769.90, 0.01, 0.78, 0.68
17, 28571.18, 18668.76, 14675.64, -6331.60, -4195.18, -4371.62, -5861.43, 5684.74, 0.02, 0.79, 0.67
18, 28731.22, 18629.15, 14780.11, -6168.32, -4100.11, -4331.30, -5768.96, 5739.77, 0.02, 0.79, 0.67
19, 28692.22, 18821.69, 14859.84, -6210.41, -4028.50, -4228.75, -5693.66, 5820.93, 0.02, 0.79, 0.67
20, 28509.07, 18898.27, 14744.17, -6391.44, -4139.34, -4274.23, -5802.13, 5752.13, 0.02, 0.79, 0.67
21, 28530.39, 18728.39, 14678.10, -6362.58, -4215.38, -4378.28, -5876.92, 5668.49, 0.02, 0.79, 0.67
22, 28714.35, 18649.78, 14769.72, -6189.51, -4121.21, -4350.19, -5782.26, 5709.26, 0.02, 0.79, 0.67
23, 28724.94, 18819.92, 14862.37, -6198.27, -4026.67, -4250.54, -5696.23, 5775.27, 0.02, 0.80, 0.68
24, 28543.67, 18933.18, 14785.25, -6375.88, -4101.97, -4258.48, -5761.52, 5746.83, 0.02, 0.80, 0.68
25, 28510.21, 18785.30, 14670.97, -6403.86, -4220.39, -4368.11, -5875.36, 5656.80, 0.02, 0.80, 0.68
26, 28700.58, 18663.68, 14746.43, -6215.71, -4156.35, -4356.98, -5815.45, 5690.89, 0.02, 0.80, 0.68
27, 28755.70, 18801.97, 14863.82, -6176.66, -4042.20, -4246.03, -5701.35, 5785.28, 0.02, 0.80, 0.68
28, 28594.38, 18952.58, 14813.26, -6351.49, -4077.65, -4237.89, -5730.65, 5766.77, 0.00, 0.80, 0.68
29, 28496.82, 18841.63, 14666.68, -6446.82, -4212.75, -4371.17, -5857.81, 5649.94, 0.00, 0.80, 0.68
30, 28655.11, 18679.98, 14695.36, -6282.87, -4193.39, -4405.62, -5838.86, 5643.10, 0.00, 0.80, 0.68
31, 28772.64, 18773.97, 14839.10, -6174.09, -4058.43, -4288.45, -5698.85, 5757.90, 0.00, 0.80, 0.68
32, 28612.24, 18944.09, 14809.57, -6341.79, -4079.17, -4256.04, -5705.95, 5760.42, 0.00, 0.80, 0.68
33, 28482.34, 18866.82, 14653.62, -6468.86, -4227.61, -4373.66, -5851.35, 5639.52, -0.01, 0.80, 0.68
34, 28618.21, 18685.54, 14650.83, -6329.05, -4232.59, -4423.77, -5858.21, 5611.81, -0.01, 0.80, 0.68
35, 28762.25, 18738.79, 14793.12, -6187.63, -4092.85, -4304.54, -5718.90, 5737.16, -0.01, 0.80, 0.68
36, 28640.70, 18925.69, 14801.84, -6320.04, -4082.12, -4240.15, -5702.11, 5768.27, -0.01, 0.80, 0.68
37, 28479.34, 18891.94, 14651.95, -6481.47, -4219.58, -4343.59, -5829.80, 5655.28, -0.01, 0.80, 0.68
38, 28572.53, 18695.58, 14613.32, -6387.82, -4256.38, -4425.18, -5859.44, 5600.83, -0.02, 0.78, 0.69
39, 28723.22, 18691.87, 14736.26, -6239.29, -4151.70, -4346.10, -5753.54, 5692.65, -0.02, 0.78, 0.69
40, 28667.09, 18885.61, 14792.70, -6304.15, -4091.24, -4248.13, -5687.94, 5757.74, -0.02, 0.78, 0.69
41, 28503.61, 18918.45, 14672.29, -6468.97, -4199.45, -4311.54, -5782.33, 5680.54, -0.02, 0.78, 0.69
42, 28544.14, 18731.07, 14592.60, -6425.99, -4283.04, -4416.44, -5868.58, 5593.77, -0.02, 0.78, 0.69
43, 28701.16, 18683.20, 14689.07, -6272.12, -4199.11, -4386.55, -5791.11, 5630.65, -0.01, 0.77, 0.69
44, 28682.09, 18858.30, 14765.29, -6302.50, -4115.81, -4285.10, -5699.34, 5704.01, -0.01, 0.77, 0.69
45, 28511.06, 18928.13, 14670.12, -6474.99, -4204.45, -4306.38, -5773.03, 5664.07, -0.01, 0.77, 0.69
46, 28500.84, 18755.66, 14567.79, -6474.85, -4308.81, -4414.49, -5869.75, 5576.89, -0.01, 0.77, 0.69
47, 28679.05, 18656.17, 14641.80, -6296.40, -4241.44, -4396.77, -5799.96, 5613.22, -0.01, 0.77, 0.69
48, 28720.85, 18815.61, 14758.45, -6265.35, -4125.53, -4284.27, -5685.66, 5695.02, -0.01, 0.77, 0.69
49, 28548.59, 18934.63, 14694.93, -6442.26, -4184.20, -4292.18, -5734.81, 5652.44, -0.00, 0.77, 0.69
50, 28494.29, 18793.84, 14563.41, -6489.81, -4304.77, -4409.57, -5852.83, 5543.32, -0.00, 0.77, 0.69
51, 28662.18, 18660.87, 14613.35, -6318.70, -4258.48, -4417.91, -5815.99, 5557.74, -0.00, 0.77, 0.69
52, 28728.12, 18785.77, 14730.00, -6264.57, -4148.13, -4312.75, -5707.70, 5639.28, -0.00, 0.77, 0.69
53, 28565.17, 18936.98, 14683.55, -6432.59, -4186.73, -4295.20, -5736.96, 5625.62, -0.00, 0.77, 0.69
54, 28479.88, 18833.60, 14547.92, -6509.57, -4305.33, -4398.42, -5847.08, 5534.38, 0.01, 0.78, 0.70
55, 28631.40, 18672.04, 14572.31, -6357.53, -4277.94, -4427.79, -5831.99, 5534.96, 0.01, 0.78, 0.70
56, 28725.90, 18751.73, 14687.80, -6269.06, -4162.77, -4344.78, -5728.82, 5609.57, 0.01, 0.78, 0.70
57, 28595.28, 18926.74, 14680.40, -6395.01, -4160.49, -4292.94, -5717.71, 5629.13, 0.01, 0.78, 0.70
58, 28476.88, 18871.67, 14550.18, -6511.11, -4281.86, -4386.86, -5839.15, 5527.61, 0.01, 0.78, 0.70
59, 28594.47, 18693.72, 14536.66, -6388.22, -4306.78, -4454.50, -5872.85, 5480.89, 0.01, 0.78, 0.70
60, 28716.98, 18727.16, 14654.27, -6264.68, -4200.09, -4377.34, -5764.05, 5571.75, 0.01, 0.78, 0.70
61, 28617.92, 18911.56, 14679.08, -6372.44, -4170.48, -4305.26, -5725.73, 5612.52, 0.01, 0.78, 0.70
62, 28463.76, 18893.95, 14543.50, -6528.97, -4305.44, -4384.90, -5851.53, 5515.54, 0.01, 0.78, 0.70
63, 28540.58, 18702.42, 14496.69, -6448.08, -4355.66, -4462.75, -5898.07, 5461.40, 0.01, 0.78, 0.70
64, 28703.97, 18685.97, 14617.95, -6292.40, -4245.53, -4403.27, -5794.31, 5529.53, 0.00, 0.78, 0.70
65, 28663.59, 18874.68, 14692.74, -6348.14, -4168.87, -4304.77, -5719.07, 5598.28, 0.00, 0.78, 0.70
66, 28489.82, 18915.25, 14569.96, -6528.56, -4280.76, -4358.34, -5825.98, 5518.49, 0.00, 0.78, 0.70
67, 28525.90, 18732.17, 14486.14, -6486.88, -4358.57, -4450.37, -5895.14, 5458.79, 0.00, 0.78, 0.70
68, 28700.27, 18673.09, 14585.50, -6316.47, -4262.16, -4412.44, -5797.46, 5524.41, 0.00, 0.78, 0.70
69, 28679.86, 18851.53, 14658.00, -6347.74, -4184.78, -4320.50, -5711.74, 5601.57, -0.01, 0.76, 0.70
70, 28502.38, 18936.31, 14552.53, -6527.54, -4276.65, -4357.88, -5790.31, 5538.40, -0.01, 0.76, 0.70
71, 28523.71, 18777.03, 14481.61, -6502.19, -4348.64, -4445.36, -5866.13, 5459.77, -0.01, 0.76, 0.70
72, 28681.62, 18682.30, 14550.47, -6349.17, -4294.55, -4442.77, -5821.74, 5474.84, -0.01, 0.76, 0.70
73, 28689.22, 18821.04, 14624.70, -6351.58, -4219.05, -4362.41, -5744.08, 5533.20, -0.01, 0.76, 0.70
74, 28530.95, 18935.06, 14562.92, -6518.04, -4265.99, -4352.82, -5777.75, 5523.27, -0.02, 0.77, 0.70
75, 28459.09, 18796.14, 14428.16, -6589.12, -4395.29, -4476.47, -5899.27, 5407.85, -0.02, 0.77, 0.70
76, 28611.37, 18641.22, 14455.45, -6436.54, -4375.22, -4512.91, -5885.33, 5395.85, -0.02, 0.77, 0.70
77, 28714.64, 18747.44, 14591.62, -6345.55, -4239.81, -4390.13, -5756.04, 5502.71, -0.02, 0.77, 0.70
78, 28567.50, 18907.12, 14567.70, -6507.17, -4259.04, -4352.15, -5765.05, 5503.40, -0.02, 0.77, 0.70
79, 28466.35, 18813.98, 14423.80, -6608.32, -4396.61, -4463.67, -5906.69, 5388.33, -0.02, 0.77, 0.70
80, 28620.18, 18644.06, 14446.89, -6444.92, -4374.62, -4494.18, -5894.98, 5387.96, -0.03, 0.78, 0.69
81, 28749.66, 18710.67, 14593.05, -6317.21, -4238.92, -4378.80, -5749.81, 5501.05, -0.03, 0.78, 0.69
82, 28588.28, 18884.81, 14563.68, -6486.27, -4266.81, -4353.58, -5760.13, 5496.45, -0.03, 0.78, 0.69
83, 28449.10, 18826.87, 14418.53, -6615.89, -4396.30, -4451.80, -5881.24, 5397.59, -0.03, 0.78, 0.69
84, 28562.58, 18630.60, 14400.40, -6497.07, -4412.48, -4512.24, -5908.04, 5361.65, -0.03, 0.78, 0.69
85, 28720.89, 18644.17, 14531.90, -6353.08, -4292.36, -4421.64, -5794.58, 5443.83, -0.02, 0.79, 0.70
86, 28656.63, 18828.19, 14581.88, -6427.96, -4229.87, -4322.58, -5729.36, 5501.95, -0.02, 0.79, 0.70
87, 28471.12, 18832.71, 14435.16, -6614.86, -4363.37, -4412.95, -5865.59, 5387.02, -0.02, 0.79, 0.70
88, 28533.19, 18639.95, 14368.89, -6544.43, -4431.88, -4506.65, -5933.65, 5317.55, -0.02, 0.79, 0.70
89, 28682.65, 18608.07, 14473.22, -6387.77, -4333.49, -4443.79, -5828.42, 5409.81, -0.02, 0.79, 0.70
90, 28643.09, 18783.04, 14536.75, -6436.32, -4268.00, -4348.60, -5758.84, 5474.77, -0.01, 0.79, 0.70
91, 28482.56, 18835.72, 14429.48, -6599.40, -4364.22, -4387.45, -5844.02, 5405.70, -0.01, 0.79, 0.70
92, 28501.24, 18658.50, 14344.21, -6570.72, -4451.93, -4486.02, -5930.32, 5313.21, -0.01, 0.79, 0.70
93, 28684.35, 18582.48, 14447.34, -6392.55, -4357.99, -4436.49, -5843.13, 5355.68, -0.01, 0.79, 0.70
94, 28664.97, 18741.91, 14517.59, -6418.06, -4287.31, -4330.23, -5766.12, 5424.01, -0.01, 0.79, 0.70
95, 28484.50, 18831.95, 14420.36, -6592.69, -4366.50, -4329.22, -5825.40, 5399.47, -0.00, 0.78, 0.70
96, 28451.45, 18672.00, 14294.12, -6625.26, -4491.94, -4445.36, -5950.57, 5281.61, -0.00, 0.78, 0.70
97, 28645.01, 18555.90, 14373.74, -6439.11, -4423.32, -4429.13, -5891.99, 5313.59, -0.00, 0.78, 0.70
98, 28705.14, 18693.39, 14493.07, -6395.53, -4308.08, -4309.73, -5774.62, 5416.97, -0.00, 0.78, 0.70
99, 28545.93, 18827.68, 14437.39, -6563.39, -4353.52, -4289.63, -5810.11, 5400.09, -0.00, 0.78, 0.70
100, 28463.85, 18713.80, 14294.59, -6640.57, -4485.08, -4402.56, -5931.66, 5286.48, 0.00, 0.77, 0.70
101, 28614.84, 18557.07, 14326.53, -6480.93, -4457.00, -4425.69, -5902.56, 5303.60, 0.00, 0.77, 0.70
102, 28713.29, 18644.84, 14460.59, -6388.58, -4328.57, -4313.13, -5777.88, 5406.17, 0.00, 0.77, 0.70
103, 28577.96, 18805.88, 14439.90, -6532.95, -4342.47, -4272.92, -5787.27, 5399.82, 0.00, 0.77, 0.70
104, 28464.92, 18729.29, 14304.31, -6637.62, -4477.64, -4376.49, -5917.78, 5295.89, 0.00, 0.77, 0.70
105, 28581.91, 18543.95, 14292.98, -6513.05, -4494.96, -4433.56, -5930.88, 5275.37, 0.00, 0.77, 0.70
106, 28702.07, 18587.44, 14410.08, -6405.50, -4378.84, -4350.88, -5812.37, 5359.68, 0.00, 0.78, 0.70
107, 28596.06, 18760.73, 14419.85, -6521.81, -4358.90, -4283.73, -5783.87, 5397.25, 0.00, 0.78, 0.70
108, 28434.93, 18729.11, 14269.22, -6677.18, -4503.41, -4374.93, -5922.92, 5294.03, 0.00, 0.78, 0.70
109, 28533.54, 18533.35, 14236.67, -6577.38, -4546.50, -4457.52, -5974.11, 5236.77, 0.00, 0.78, 0.70
110, 28721.90, 18534.96, 14387.86, -6404.91, -4407.34, -4371.51, -5843.46, 5324.68, 0.00, 0.78, 0.70
111, 28664.50, 18726.83, 14445.53, -6474.67, -4343.17, -4280.67, -5779.58, 5382.28, -0.01, 0.77, 0.70
112, 28474.65, 18747.37, 14299.59, -6663.03, -4482.55, -4347.97, -5902.85, 5303.64, -0.01, 0.77, 0.70
113, 28531.24, 18547.61, 14232.99, -6600.38, -4550.97, -4443.97, -5971.72, 5237.44, -0.01, 0.77, 0.70
114, 28716.25, 18497.12, 14361.55, -6416.72, -4426.36, -4379.20, -5851.11, 5319.45, -0.01, 0.77, 0.70
115, 28663.90, 18669.65, 14410.48, -6485.20, -4381.28, -4311.34, -5799.79, 5357.02, -0.01, 0.77, 0.70
116, 28478.71, 18723.18, 14288.60, -6676.24, -4493.64, -4369.10, -5902.02, 5269.74, -0.01, 0.77, 0.69
117, 28484.53, 18537.29, 14202.59, -6652.30, -4582.44, -4464.63, -5990.49, 5191.71, -0.01, 0.77, 0.69
118, 28660.59, 18441.28, 14295.97, -6474.88, -4503.54, -4430.43, -5915.66, 5249.17, -0.01, 0.77, 0.69
119, 28703.88, 18601.43, 14401.74, -6459.41, -4399.20, -4323.63, -5808.64, 5331.40, -0.01, 0.77, 0.69
120, 28519.21, 18706.58, 14316.60, -6644.26, -4470.53, -4342.30, -5868.54, 5284.29, -0.01, 0.77, 0.69
121, 28468.77, 18558.50, 14192.37, -6684.22, -4593.86, -4454.81, -5979.52, 5184.44, -0.01, 0.77, 0.69
122, 28637.54, 18433.33, 14237.75, -6523.07, -4559.40, -4468.83, -5952.36, 5189.49, -0.01, 0.77, 0.69
123, 28724.43, 18559.46, 14370.76, -6452.39, -4430.18, -4344.53, -5825.60, 5303.76, -0.01, 0.77, 0.69
124, 28552.41, 18700.72, 14314.68, -6626.42, -4476.54, -4324.53, -5858.48, 5293.14, -0.01, 0.77, 0.69
125, 28469.51, 18588.45, 14185.62, -6702.30, -4596.10, -4431.50, -5968.56, 5185.38, -0.01, 0.77, 0.69
126, 28591.63, 18416.92, 14185.58, -6582.16, -4593.48, -4497.60, -5983.23, 5145.62, -0.01, 0.77, 0.69
127, 28695.26, 18487.26, 14321.61, -6484.11, -4472.65, -4401.59, -5871.22, 5233.24, -0.01, 0.77, 0.69
128, 28586.00, 18659.75, 14329.28, -6595.37, -4460.11, -4325.82, -5847.31, 5272.06, -0.01, 0.77, 0.69
129, 28458.15, 18602.37, 14184.30, -6717.17, -4594.33, -4416.30, -5968.83, 5183.19, -0.01, 0.77, 0.69
130, 28561.57, 18416.36, 14161.08, -6603.58, -4622.39, -4487.76, -6004.48, 5141.42, -0.01, 0.77, 0.69
131, 28695.17, 18446.87, 14285.20, -6473.49, -4506.38, -4403.72, -5889.60, 5227.78, 0.00, 0.78, 0.70
132, 28605.27, 18625.24, 14303.57, -6575.41, -4478.04, -4333.38, -5858.21, 5265.51, 0.00, 0.78, 0.70
133, 28449.61, 18603.91, 14165.17, -6736.06, -4613.42, -4424.01, -5991.21, 5151.36, 0.00, 0.78, 0.70
134, 28521.16, 18407.73, 14118.23, -6657.35, -4678.00, -4521.58, -6060.52, 5076.86, 0.00, 0.78, 0.70
135, 28681.73, 18389.70, 14235.62, -6501.83, -4569.88, -4454.23, -5956.96, 5166.81, 0.00, 0.78, 0.70
136, 28640.61, 18570.70, 14296.71, -6556.17, -4503.94, -4356.94, -5882.62, 5234.13, 0.00, 0.78, 0.70
137, 28476.52, 18604.90, 14182.70, -6724.72, -4611.46, -4418.07, -5988.90, 5143.38, 0.00, 0.79, 0.69
138, 28500.31, 18417.12, 14096.15, -6693.50, -4703.52, -4533.02, -6086.54, 5051.47, 0.00, 0.79, 0.69
139, 28683.59, 18354.36, 14217.25, -6507.73, -4589.68, -4468.36, -5974.76, 5149.35, 0.00, 0.79, 0.69
140, 28681.67, 18522.24, 14307.19, -6519.51, -4499.79, -4355.37, -5883.69, 5238.89, 0.00, 0.79, 0.69
141, 28514.77, 18604.61, 14213.67, -6688.47, -4582.62, -4377.30, -5945.38, 5194.08, 0.00, 0.79, 0.69
142, 28486.54, 18439.38, 14094.65, -6713.39, -4703.77, -4495.29, -6057.57, 5093.60, 0.01, 0.80, 0.69
143, 28672.75, 18331.29, 14181.87, -6529.66, -4624.93, -4472.18, -5989.24, 5138.78, 0.01, 0.80, 0.69
144, 28690.54, 18477.22, 14275.75, -6525.95, -4538.92, -4377.68, -5904.48, 5207.49, 0.01, 0.80, 0.69
145, 28510.70, 18587.91, 14193.11, -6711.85, -4612.53, -4395.45, -5963.38, 5164.48, 0.01, 0.80, 0.69
146, 28449.03, 18449.53, 14067.25, -6770.81, -4730.68, -4517.76, -6077.19, 5058.89, 0.01, 0.80, 0.69
147, 28624.18, 18299.19, 14129.27, -6594.79, -4674.33, -4521.33, -6021.07, 5085.22, 0.00, 0.79, 0.69
148, 28692.89, 18401.92, 14246.08, -6533.79, -4557.99, -4400.97, -5893.44, 5200.45, 0.00, 0.79, 0.69
149, 28552.05, 18552.13, 14209.85, -6687.66, -4589.13, -4368.65, -5908.95, 5194.01, 0.00, 0.79, 0.69
150, 28461.97, 18453.80, 14075.88, -6780.49, -4720.11, -4483.58, -6043.38, 5080.98, 0.00, 0.79, 0.69
151, 28613.43, 18282.34, 14110.39, -6626.33, -4696.35, -4518.02, -6032.22, 5074.78, 0.00, 0.79, 0.69
152, 28718.12, 18348.12, 14231.49, -6536.52, -4581.30, -4431.26, -5921.98, 5151.00, -0.00, 0.78, 0.69
153, 28594.54, 18519.22, 14218.79, -6670.19, -4583.27, -4393.32, -5920.89, 5146.73, -0.00, 0.78, 0.69
154, 28471.18, 18477.14, 14093.09, -6782.68, -4700.06, -4468.05, -6024.94, 5071.59, -0.00, 0.78, 0.69
155, 28565.75, 18288.04, 14055.16, -6689.61, -4751.62, -4554.23, -6089.15, 5004.65, -0.00, 0.78, 0.69
156, 28711.89, 18297.81, 14177.67, -6554.16, -4639.82, -4483.83, -5983.03, 5082.97, -0.00, 0.78, 0.69
157, 28641.61, 18480.94, 14228.32, -6628.61, -4586.06, -4383.58, -5913.40, 5157.06, -0.00, 0.78, 0.70
158, 28460.14, 18479.08, 14079.45, -6808.92, -4730.21, -4481.59, -6052.25, 5040.16, -0.00, 0.78, 0.70
159, 28529.23, 18279.55, 14023.28, -6737.26, -4781.98, -4582.53, -6110.59, 4965.75, -0.00, 0.78, 0.70
160, 28705.96, 18252.79, 14150.69, -6568.10, -4656.96, -4519.46, -5993.22, 5042.98, -0.00, 0.78, 0.70
161, 28652.74, 18433.35, 14217.36, -6629.06, -4593.33, -4414.78, -5913.24, 5133.99, -0.00, 0.78, 0.70
162, 28468.32, 18471.46, 14091.34, -6814.42, -4706.09, -4464.00, -6013.67, 5074.16, -0.00, 0.78, 0.70
163, 28480.77, 18283.99, 13997.47, -6792.69, -4798.79, -4575.09, -6106.65, 4982.94, -0.00, 0.78, 0.70
164, 28654.91, 18206.70, 14088.44, -6619.36, -4719.91, -4548.58, -6027.77, 5024.49, -0.00, 0.78, 0.70
165, 28655.16, 18370.65, 14179.81, -6631.23, -4637.34, -4448.18, -5934.48, 5099.39, -0.00, 0.78, 0.70
166, 28499.50, 18456.35, 14090.38, -6789.88, -4711.57, -4469.92, -5998.74, 5043.89, -0.00, 0.78, 0.70
167, 28487.57, 18306.86, 13992.91, -6800.00, -4815.73, -4566.66, -6096.04, 4960.10, -0.00, 0.78, 0.70
168, 28646.42, 18194.72, 14047.22, -6644.53, -4773.17, -4563.44, -6062.31, 4994.23, -0.00, 0.78, 0.70
169, 28683.01, 18331.87, 14154.26, -6616.47, -4667.56, -4454.75, -5954.30, 5095.21, -0.00, 0.78, 0.70
170, 28531.98, 18454.40, 14101.94, -6773.36, -4705.35, -4445.47, -5980.07, 5073.42, -0.00, 0.78, 0.70
171, 28447.73, 18328.34, 13970.22, -6850.12, -4835.02, -4561.03, -6109.92, 4962.71, -0.00, 0.78, 0.70
172, 28597.78, 18175.28, 14005.16, -6698.33, -4813.14, -4595.81, -6098.47, 4953.15, -0.00, 0.78, 0.70
173, 28708.38, 18274.54, 14156.59, -6589.90, -4663.96, -4468.18, -5942.79, 5077.96, -0.00, 0.78, 0.70
174, 28572.66, 18435.79, 14135.38, -6736.17, -4674.42, -4429.65, -5950.46, 5072.86, -0.00, 0.78, 0.70
175, 28462.53, 18353.08, 13990.38, -6849.38, -4816.71, -4541.74, -6087.48, 4956.41, -0.00, 0.78, 0.70
176, 28565.17, 18179.03, 13976.61, -6742.49, -4844.20, -4608.95, -6114.27, 4921.92, -0.00, 0.78, 0.70
177, 28684.57, 18219.09, 14094.21, -6631.18, -4734.03, -4532.31, -6007.66, 5000.60, -0.00, 0.78, 0.70
178, 28588.75, 18394.14, 14118.81, -6737.58, -4706.54, -4452.71, -5971.60, 5048.97, 0.00, 0.78, 0.70
179, 28441.52, 18355.54, 13973.73, -6885.25, -4848.54, -4550.97, -6109.89, 4934.86, 0.00, 0.78, 0.70
180, 28536.83, 18163.47, 13943.46, -6786.03, -4888.08, -4627.86, -6156.01, 4883.16, 0.00, 0.78, 0.70
181, 28684.26, 18164.61, 14063.56, -6642.40, -4773.04, -4552.02, -6041.85, 4975.07, 0.00, 0.78, 0.70
182, 28616.09, 18344.81, 14103.50, -6719.09, -4720.71, -4472.29, -5981.75, 5023.22, 0.00, 0.78, 0.70
183, 28456.41, 18356.95, 13977.39, -6875.73, -4830.68, -4536.35, -6085.33, 4936.65, 0.01, 0.78, 0.69
184, 28503.90, 18172.79, 13907.37, -6822.22, -4899.10, -4625.94, -6155.74, 4874.65, 0.01, 0.78, 0.69
185, 28671.54, 18132.40, 14014.86, -6663.14, -4802.14, -4578.33, -6064.36, 4942.62, 0.01, 0.78, 0.69
186, 28653.28, 18306.06, 14091.97, -6688.94, -4717.69, -4469.41, -5972.74, 5025.99, 0.01, 0.78, 0.69
187, 28479.32, 18362.03, 13978.67, -6870.19, -4818.90, -4516.95, -6066.20, 4951.98, 0.01, 0.78, 0.69
188, 28475.36, 18182.61, 13881.13, -6868.40, -4913.56, -4638.05, -6165.35, 4850.75, 0.00, 0.79, 0.70
189, 28642.33, 18088.57, 13963.22, -6698.06, -4830.03, -4612.86, -6093.98, 4904.20, 0.00, 0.79, 0.70
190, 28651.49, 18244.16, 14065.97, -6699.94, -4738.35, -4512.26, -6005.29, 4983.30, 0.00, 0.79, 0.70
191, 28472.86, 18344.39, 13976.77, -6883.11, -4820.94, -4524.26, -6074.47, 4940.14, 0.00, 0.79, 0.70
192, 28441.32, 18191.06, 13860.07, -6910.31, -4929.10, -4630.83, -6182.85, 4842.17, 0.00, 0.79, 0.70
193, 28622.19, 18063.81, 13942.88, -6729.19, -4859.54, -4620.93, -6126.57, 4883.39, 0.00, 0.79, 0.70
194, 28669.71, 18190.50, 14050.06, -6697.83, -4767.34, -4528.91, -6038.48, 4970.07, 0.00, 0.78, 0.70
195, 28526.10, 18327.58, 14000.53, -6849.94, -4804.66, -4516.48, -6065.37, 4955.45, 0.00, 0.78, 0.70
196, 28429.88, 18217.56, 13857.50, -6942.68, -4936.92, -4642.88, -6189.22, 4841.70, 0.00, 0.78, 0.70
197, 28588.60, 18057.19, 13894.83, -6782.57, -4906.34, -4664.74, -6160.74, 4865.55, 0.00, 0.78, 0.70
198, 28697.05, 18145.12, 14032.29, -6683.89, -4776.95, -4551.96, -6030.57, 4985.33, 0.00, 0.78, 0.70
199, 28536.74, 18306.84, 13991.88, -6852.73, -4813.65, -4528.40, -6062.93, 4976.59, 0.00, 0.78, 0.70
200, 28401.13, 18227.98, 13831.80, -6988.29, -4967.83, -4645.97, -6211.64, 4850.37, 0.00, 0.78, 0.70
201, 28541.54, 18038.73, 13843.91, -6848.48, -4964.41, -4694.34, -6217.99, 4821.47, 0.00, 0.78, 0.70
202, 28681.06, 18077.51, 13987.59, -6713.06, -4836.65, -4592.43, -6089.87, 4930.75, 0.00, 0.78, 0.70
203, 28595.48, 18255.43, 14017.02, -6804.72, -4798.56, -4506.16, -6039.20, 4987.86, 0.00, 0.78, 0.70
204, 28452.38, 18238.60, 13887.67, -6951.41, -4921.25, -4584.10, -6157.44, 4893.56, 0.00, 0.77, 0.70
205, 28520.38, 18053.01, 13837.92, -6877.43, -4975.86, -4682.53, -6222.08, 4823.35, 0.00, 0.77, 0.70
206, 28676.93, 18041.23, 13956.36, -6724.05, -4865.44, -4613.22, -6117.99, 4906.99, 0.00, 0.77, 0.70
207, 28628.83, 18227.02, 14016.22, -6779.42, -4793.82, -4498.62, -6029.11, 4994.92, 0.00, 0.77, 0.70
208, 28455.80, 18254.20, 13892.46, -6952.60, -4912.40, -4561.10, -6137.32, 4904.42, 0.00, 0.77, 0.70
209, 28502.85, 18066.42, 13836.53, -6905.93, -4983.68, -4665.70, -6218.86, 4821.90, 0.01, 0.78, 0.70
210, 28662.89, 18011.97, 13942.46, -6756.06, -4899.77, -4644.83, -6140.49, 4865.55, 0.01, 0.78, 0.70
211, 28639.96, 18174.31, 14017.25, -6788.54, -4832.65, -4559.29, -6070.80, 4928.69, 0.01, 0.78, 0.70
212, 28478.04, 18238.64, 13920.80, -6952.78, -4918.26, -4584.77, -6148.27, 4873.33, 0.01, 0.78, 0.70
213, 28470.00, 18066.45, 13824.02, -6953.14, -5012.38, -4700.26, -6247.07, 4780.68, 0.01, 0.78, 0.70
214, 28631.02, 17964.19, 13897.04, -6793.23, -4947.42, -4697.91, -6192.35, 4810.39, -0.00, 0.78, 0.69
215, 28667.54, 18110.34, 14005.13, -6764.78, -4845.66, -4579.63, -6085.64, 4916.29, -0.00, 0.78, 0.69
216, 28509.09, 18223.38, 13937.09, -6924.59, -4899.44, -4563.82, -6120.42, 4906.61, -0.00, 0.78, 0.69
217, 28444.40, 18085.51, 13798.60, -6990.26, -5025.88, -4689.40, -6243.02, 4793.06, -0.00, 0.78, 0.69
218, 28594.27, 17944.56, 13842.17, -6842.36, -4993.04, -4727.64, -6217.43, 4787.10, -0.00, 0.78, 0.69
219, 28675.10, 18051.94, 13976.17, -6771.48, -4867.34, -4618.59, -6091.52, 4885.40, -0.01, 0.77, 0.69
220, 28515.77, 18193.72, 13919.88, -6941.89, -4911.24, -4614.38, -6127.48, 4855.98, -0.01, 0.77, 0.69
221, 28414.41, 18086.65, 13782.44, -7035.70, -5040.18, -4731.15, -6248.72, 4754.17, -0.01, 0.77, 0.69
222, 28565.84, 17915.46, 13817.65, -6875.69, -5014.61, -4759.45, -6226.12, 4773.39, -0.01, 0.77, 0.69
223, 28657.13, 17990.11, 13941.92, -6794.33, -4903.57, -4668.16, -6121.67, 4856.36, -0.01, 0.77, 0.69
224, 28515.26, 18151.85, 13906.90, -6942.59, -4928.81, -4641.79, -6141.86, 4844.94, -0.01, 0.77, 0.69
225, 28394.56, 18091.08, 13767.13, -7061.41, -5061.40, -4733.56, -6270.38, 4749.03, -0.01, 0.77, 0.69
226, 28517.43, 17905.51, 13777.17, -6928.28, -5061.98, -4779.00, -6270.56, 4739.31, -0.01, 0.77, 0.69
227, 28653.91, 17929.85, 13900.21, -6800.45, -4947.09, -4698.74, -6151.36, 4825.47, -0.01, 0.77, 0.69
228, 28579.19, 18107.66, 13930.68, -6887.00, -4909.63, -4619.10, -6111.46, 4865.86, -0.01, 0.77, 0.69
229, 28441.70, 18107.01, 13821.22, -7025.11, -5009.79, -4683.38, -6216.78, 4781.19, -0.01, 0.77, 0.69
230, 28493.13, 17919.55, 13761.81, -6972.65, -5077.00, -4797.98, -6295.84, 4699.07, -0.01, 0.77, 0.69
231, 28660.28, 17897.02, 13887.70, -6808.81, -4959.25, -4734.48, -6181.89, 4783.16, -0.01, 0.77, 0.69
232, 28601.58, 18079.07, 13931.80, -6874.19, -4907.12, -4630.12, -6114.41, 4859.56, -0.01, 0.77, 0.69
233, 28432.67, 18113.32, 13809.96, -7044.42, -5020.00, -4684.68, -6218.23, 4784.01, -0.01, 0.77, 0.69
234, 28471.16, 17930.10, 13744.06, -6995.63, -5088.84, -4784.59, -6292.40, 4715.50, -0.01, 0.77, 0.69
235, 28632.14, 17860.81, 13840.22, -6836.48, -5002.25, -4757.43, -6219.64, 4760.99, -0.01, 0.78, 0.68
236, 28625.95, 18020.96, 13919.17, -6850.94, -4913.00, -4648.16, -6129.61, 4834.68, -0.01, 0.78, 0.68
237, 28445.50, 18102.65, 13812.33, -7036.66, -5006.70, -4686.74, -6217.56, 4767.81, -0.01, 0.78, 0.68
238, 28414.12, 17934.99, 13695.61, -7063.42, -5134.37, -4821.11, -6352.92, 4652.14, -0.01, 0.78, 0.68
239, 28593.11, 17814.34, 13777.39, -6888.11, -5065.62, -4818.61, -6299.46, 4683.20, -0.01, 0.78, 0.68
240, 28639.31, 17951.42, 13898.78, -6855.46, -4950.53, -4709.49, -6174.49, 4766.58, -0.01, 0.79, 0.68
241, 28467.67, 18067.90, 13823.86, -7038.03, -5017.32, -4716.64, -6225.05, 4725.81, -0.01, 0.79, 0.68
242, 28399.95, 17931.48, 13696.21, -7096.75, -5143.74, -4811.62, -6336.36, 4656.36, -0.01, 0.79, 0.68
243, 28560.92, 17777.21, 13757.77, -6926.96, -5097.78, -4814.12, -6283.50, 4693.89, -0.01, 0.79, 0.68
244, 28660.57, 17877.77, 13893.62, -6843.14, -4968.73, -4700.59, -6151.18, 4793.87, -0.01, 0.79, 0.68
245, 28507.91, 18031.82, 13847.38, -7001.26, -5002.30, -4682.69, -6181.04, 4768.83, -0.01, 0.78, 0.68
246, 28401.13, 17945.57, 13703.38, -7106.25, -5141.10, -4800.42, -6321.23, 4645.45, -0.01, 0.78, 0.68
247, 28520.98, 17769.66, 13708.68, -6988.90, -5153.84, -4871.18, -6341.73, 4606.83, -0.01, 0.78, 0.68
248, 28641.37, 17825.81, 13846.75, -6874.39, -5023.08, -4762.42, -6208.60, 4728.91, -0.01, 0.78, 0.68
249, 28541.34, 18000.17, 13848.11, -6985.17, -5014.46, -4694.20, -6193.09, 4753.14, -0.01, 0.78, 0.68
250, 28422.99, 17959.09, 13721.24, -7102.76, -5136.05, -4777.66, -6309.20, 4652.27, -0.01, 0.78, 0.68
251, 28527.71, 17776.01, 13715.48, -6996.97, -5152.50, -4851.65, -6331.60, 4613.51, -0.02, 0.78, 0.69
252, 28679.03, 17790.18, 13838.08, -6859.68, -5031.53, -4779.36, -6218.41, 4686.91, -0.02, 0.78, 0.69
253, 28585.02, 17976.63, 13851.67, -6960.80, -5009.47, -4707.39, -6181.20, 4722.66, -0.02, 0.78, 0.69
254, 28439.33, 17984.66, 13735.01, -7100.37, -5118.46, -4758.06, -6282.20, 4661.34, -0.02, 0.78, 0.69
255, 28501.11, 17800.37, 13692.05, -7027.92, -5160.95, -4835.96, -6328.20, 4617.36, -0.02, 0.78, 0.69
0, 28637.57, 17764.58, 13790.11, -6895.00, -5073.58, -4805.80, -6244.27, 4665.79, -0.02, 0.78, 0.69
1, 28595.84, 17938.30, 13837.50, -6950.74, -5024.69, -4726.52, -6190.34, 4708.04, -0.02, 0.78, 0.69
2, 28425.29, 17989.64, 13714.47, -7125.76, -5138.15, -4770.60, -6290.59, 4631.55, -0.02, 0.78, 0.69
3, 28452.94, 17809.42, 13645.16, -7088.23, -5212.45, -4866.94, -6367.77, 4556.58, -0.02, 0.78, 0.69
4, 28611.51, 17727.75, 13741.20, -6932.42, -5130.60, -4852.83, -6293.22, 4602.31, -0.02, 0.78, 0.69
5, 28618.64, 17881.35, 13833.11, -6934.27, -5043.25, -4750.24, -6201.49, 4687.03, -0.01, 0.78, 0.69
6, 28463.00, 17980.37, 13752.45, -7091.52, -5116.07, -4742.01, -6259.47, 4660.63, -0.01, 0.78, 0.69
7, 28415.64, 17830.72, 13630.56, -7129.00, -5233.95, -4862.82, -6373.20, 4560.43, -0.01, 0.78, 0.69
8, 28594.16, 17699.38, 13715.83, -6947.39, -5156.12, -4860.88, -6309.23, 4592.79, -0.01, 0.78, 0.69
9, 28642.57, 17826.39, 13821.67, -6915.67, -5057.82, -4759.38, -6209.07, 4680.10, -0.01, 0.78, 0.69
10, 28483.79, 17960.70, 13756.38, -7078.48, -5112.89, -4743.44, -6246.28, 4659.98, -0.02, 0.79, 0.70
11, 28389.93, 17841.86, 13619.88, -7162.88, -5246.69, -4868.21, -6368.77, 4548.18, -0.02, 0.79, 0.70
12, 28549.44, 17677.75, 13667.49, -7003.67, -5213.07, -4899.57, -6341.66, 4555.91, -0.02, 0.79, 0.70
13, 28661.30, 17771.89, 13800.08, -6915.54, -5087.50, -4795.05, -6220.74, 4655.73, -0.02, 0.79, 0.70
14, 28522.52, 17937.79, 13753.97, -7071.94, -5119.58, -4761.19, -6239.87, 4648.85, -0.02, 0.79, 0.70
15, 28400.21, 17859.38, 13628.91, -7172.12, -5245.91, -4853.08, -6357.37, 4543.84, -0.02, 0.79, 0.69
16, 28519.04, 17675.33, 13653.32, -7040.78, -5242.24, -4904.29, -6354.11, 4544.94, -0.02, 0.79, 0.69
17, 28650.89, 17710.72, 13784.57, -6920.50, -5118.04, -4806.63, -6229.86, 4663.11, -0.02, 0.79, 0.69
18, 28525.99, 17875.20, 13774.02, -7052.51, -5118.68, -4758.40, -6222.44, 4672.39, -0.02, 0.79, 0.69
19, 28391.83, 17840.31, 13630.07, -7195.07, -5251.34, -4848.52, -6351.45, 4566.15, -0.02, 0.79, 0.69
20, 28486.87, 17652.54, 13613.31, -7096.34, -5275.44, -4924.85, -6382.50, 4517.76, -0.04, 0.79, 0.70
21, 28628.34, 17640.71, 13740.94, -6957.74, -5163.01, -4864.01, -6272.93, 4598.29, -0.04, 0.79, 0.70
22, 28553.23, 17815.48, 13767.31, -7053.18, -5125.03, -4790.18, -6229.32, 4634.08, -0.04, 0.79, 0.70
23, 28375.03, 17822.54, 13624.82, -7231.59, -5250.80, -4868.37, -6345.91, 4527.75, -0.04, 0.79, 0.70
24, 28420.49, 17626.50, 13558.86, -7187.78, -5322.29, -4981.02, -6426.62, 4450.50, -0.04, 0.79, 0.70
25, 28575.05, 17555.93, 13678.31, -7024.01, -5212.81, -4933.16, -6328.00, 4537.96, -0.04, 0.79, 0.70
26, 28568.84, 17719.59, 13754.66, -7054.95, -5129.59, -4823.71, -6247.58, 4616.44, -0.06, 0.79, 0.70
27, 28415.19, 17789.73, 13658.88, -7212.26, -5212.25, -4837.34, -6325.52, 4562.53, -0.06, 0.79, 0.70
28, 28429.43, 17621.29, 13576.87, -7206.22, -5300.36, -4942.80, -6420.02, 4469.48, -0.06, 0.79, 0.70
29, 28583.81, 17512.35, 13658.17, -7059.55, -5251.63, -4945.10, -6380.91, 4481.73, -0.06, 0.79, 0.70
30, 28623.73, 17652.83, 13753.34, -7035.81, -5155.63, -4827.42, -6260.43, 4588.57, -0.06, 0.79, 0.70
31, 28455.42, 17772.94, 13662.64, -7199.09, -5215.42, -4811.86, -6294.88, 4563.38, -0.04, 0.79, 0.70
32, 28405.24, 17641.29, 13532.28, -7251.22, -5342.69, -4935.56, -6424.47, 4438.81, -0.04, 0.79, 0.70
33, 28568.95, 17503.94, 13597.77, -7088.12, -5298.12, -4955.14, -6387.70, 4453.52, -0.04, 0.79, 0.70
34, 28642.08, 17613.38, 13713.35, -7020.55, -5189.34, -4842.33, -6273.40, 4555.80, -0.04, 0.79, 0.70
35, 28486.96, 17767.36, 13649.74, -7176.79, -5237.19, -4810.48, -6309.18, 4542.05, -0.04, 0.79, 0.70
36, 28396.37, 17670.55, 13515.90, -7264.41, -5366.36, -4921.83, -6432.09, 4426.07, -0.02, 0.79, 0.70
37, 28536.31, 17503.23, 13556.35, -7124.98, -5343.54, -4957.17, -6417.57, 4419.05, -0.02, 0.79, 0.70
38, 28628.92, 17562.88, 13675.53, -7036.49, -5227.38, -4869.13, -6307.62, 4504.79, -0.02, 0.79, 0.70
39, 28503.95, 17730.43, 13649.25, -7162.33, -5235.20, -4813.72, -6311.08, 4516.77, -0.02, 0.79, 0.70
40, 28398.54, 17692.54, 13525.13, -7259.31, -5347.57, -4887.54, -6422.26, 4433.20, -0.02, 0.79, 0.70
41, 28507.84, 17511.88, 13536.86, -7139.59, -5354.61, -4955.40, -6443.09, 4399.81, 0.02, 0.79, 0.70
42, 28637.90, 17520.50, 13661.90, -7016.19, -5244.10, -4876.88, -6341.61, 4476.79, 0.02, 0.79, 0.70
43, 28566.31, 17701.89, 13681.21, -7094.98, -5213.03, -4784.93, -6306.79, 4515.23, 0.02, 0.79, 0.70
44, 28409.00, 17711.54, 13539.66, -7247.84, -5347.90, -4864.57, -6429.41, 4400.01, 0.02, 0.79, 0.70
45, 28466.38, 17522.05, 13490.01, -7187.65, -5414.08, -4969.22, -6495.42, 4321.75, 0.02, 0.79, 0.70
46, 28625.81, 17479.42, 13619.79, -7028.39, -5300.11, -4901.98, -6385.80, 4401.55, 0.04, 0.79, 0.70
47, 28574.09, 17653.99, 13665.77, -7082.22, -5244.37, -4797.24, -6317.18, 4475.11, 0.04, 0.79, 0.70
48, 28418.79, 17717.76, 13555.01, -7234.30, -5347.59, -4833.50, -6415.58, 4408.95, 0.04, 0.79, 0.70
49, 28447.64, 17551.48, 13485.52, -7201.15, -5419.02, -4949.03, -6494.88, 4317.19, 0.04, 0.79, 0.70
50, 28607.51, 17470.10, 13597.64, -7042.19, -5312.90, -4915.62, -6387.41, 4387.71, 0.04, 0.79, 0.70
51, 28587.93, 17625.49, 13665.21, -7068.96, -5248.37, -4811.86, -6306.57, 4467.31, 0.04, 0.79, 0.70
52, 28433.83, 17728.44, 13560.67, -7224.15, -5343.34, -4812.69, -6391.24, 4420.97, 0.05, 0.79, 0.70
53, 28412.22, 17584.83, 13456.29, -7241.79, -5455.97, -4934.46, -6508.38, 4315.63, 0.05, 0.79, 0.70
54, 28570.29, 17453.56, 13535.75, -7086.44, -5389.88, -4953.50, -6449.80, 4329.80, 0.05, 0.79, 0.70
55, 28608.69, 17580.45, 13639.24, -7052.06, -5284.53, -4838.86, -6338.26, 4423.81, 0.05, 0.79, 0.70
56, 28453.57, 17730.48, 13563.37, -7205.78, -5345.69, -4802.27, -6373.24, 4416.24, 0.05, 0.79, 0.70
57, 28376.12, 17623.54, 13429.64, -7278.60, -5474.32, -4924.11, -6494.12, 4297.59, 0.05, 0.78, 0.70
58, 28536.27, 17456.18, 13491.49, -7120.46, -5425.30, -4960.99, -6464.17, 4300.12, 0.05, 0.78, 0.70
59, 28605.74, 17538.52, 13608.57, -7057.65, -5320.03, -4858.08, -6361.75, 4391.31, 0.05, 0.78, 0.70
60, 28447.42, 17707.92, 13544.80, -7220.37, -5374.81, -4818.21, -6400.18, 4379.31, 0.05, 0.78, 0.70
61, 28360.70, 17646.84, 13418.87, -7301.29, -5489.48, -4916.49, -6508.96, 4275.87, 0.05, 0.78, 0.70
62, 28493.64, 17470.73, 13458.50, -7168.34, -5464.73, -4982.87, -6497.18, 4260.26, 0.04, 0.78, 0.70
63, 28612.85, 17511.94, 13589.82, -7061.30, -5335.50, -4892.82, -6372.88, 4358.77, 0.04, 0.78, 0.70
64, 28502.65, 17703.10, 13572.58, -7180.50, -5339.52, -4846.51, -6359.38, 4381.81, 0.04, 0.78, 0.70
65, 28380.08, 17699.05, 13433.06, -7302.56, -5470.50, -4946.80, -6480.20, 4281.03, 0.04, 0.78, 0.70
66, 28472.93, 17514.11, 13417.08, -7214.29, -5495.94, -5041.53, -6522.15, 4216.19, 0.04, 0.78, 0.70
67, 28623.33, 17500.48, 13547.19, -7078.60, -5371.77, -4959.20, -6408.71, 4299.07, 0.05, 0.77, 0.69
68, 28556.74, 17692.81, 13569.03, -7151.60, -5337.17, -4849.48, -6358.60, 4354.81, 0.05, 0.77, 0.69
69, 28395.16, 17736.09, 13442.00, -7291.09, -5451.93, -4897.18, -6449.73, 4290.66, 0.05, 0.77, 0.69
70, 28443.00, 17553.99, 13394.24, -7234.83, -5506.69, -5008.11, -6509.30, 4223.41, 0.05, 0.77, 0.69
71, 28591.72, 17486.02, 13510.13, -7089.26, -5404.65, -4987.57, -6423.89, 4276.07, 0.05, 0.77, 0.69
72, 28547.63, 17653.70, 13551.73, -7145.81, -5364.71, -4894.50, -6379.68, 4319.30, 0.05, 0.77, 0.70
73, 28402.56, 17746.30, 13428.66, -7297.20, -5466.03, -4908.33, -6461.40, 4261.38, 0.05, 0.77, 0.70
74, 28428.20, 17596.03, 13363.35, -7272.16, -5531.34, -4986.58, -6529.15, 4175.26, 0.05, 0.77, 0.70
75, 28580.93, 17490.20, 13460.85, -7123.99, -5456.66, -4959.49, -6468.73, 4201.55, 0.05, 0.77, 0.70
76, 28583.70, 17632.31, 13541.83, -7124.10, -5379.17, -4838.59, -6383.88, 4277.74, 0.05, 0.77, 0.70
77, 28398.47, 17761.84, 13422.40, -7303.07, -5482.26, -4837.03, -6459.07, 4237.71, 0.05, 0.78, 0.70
78, 28389.80, 17632.20, 13336.79, -7306.79, -5568.62, -4926.01, -6549.82, 4157.36, 0.05, 0.78, 0.70
79, 28561.68, 17483.00, 13436.17, -7137.49, -5486.08, -4923.98, -6485.43, 4187.69, 0.05, 0.78, 0.70
80, 28600.60, 17585.75, 13528.71, -7109.11, -5386.21, -4822.70, -6379.46, 4271.84, 0.05, 0.78, 0.70
81, 28451.22, 17748.02, 13446.94, -7263.40, -5448.66, -4798.81, -6422.68, 4246.67, 0.05, 0.78, 0.70
82, 28392.28, 17667.80, 13337.38, -7318.65, -5561.43, -4898.32, -6539.09, 4136.39, 0.05, 0.78, 0.70
83, 28544.21, 17493.66, 13400.90, -7171.13, -5522.07, -4927.98, -6513.41, 4139.03, 0.05, 0.78, 0.70
84, 28624.07, 17550.79, 13513.42, -7098.62, -5417.08, -4821.11, -6405.52, 4238.83, 0.05, 0.78, 0.70
85, 28502.77, 17736.47, 13472.25, -7229.81, -5449.67, -4771.67, -6429.93, 4223.32, 0.05, 0.78, 0.70
86, 28383.52, 17709.40, 13324.28, -7347.20, -5587.09, -4874.09, -6556.68, 4118.44, 0.05, 0.78, 0.70
87, 28489.96, 17515.59, 13330.51, -7239.26, -5589.57, -4937.37, -6559.57, 4113.32, 0.05, 0.78, 0.70
88, 28632.81, 17518.85, 13488.58, -7104.59, -5448.22, -4833.12, -6424.14, 4221.22, 0.05, 0.78, 0.70
89, 28505.36, 17711.01, 13458.39, -7235.04, -5471.73, -4774.02, -6432.07, 4224.26, 0.05, 0.78, 0.70
90, 28376.97, 17729.47, 13317.93, -7357.48, -5599.69, -4844.05, -6551.27, 4136.39, 0.05, 0.78, 0.70
91, 28455.36, 17544.04, 13303.11, -7277.86, -5623.03, -4939.56, -6581.00, 4075.77, 0.05, 0.78, 0.70
92, 28599.03, 17498.69, 13435.61, -7134.07, -5497.79, -4880.44, -6453.44, 4160.91, 0.05, 0.78, 0.70
93, 28542.04, 17679.07, 13460.73, -7199.27, -5466.72, -4778.56, -6407.22, 4226.13, 0.06, 0.77, 0.70
94, 28394.04, 17753.61, 13330.16, -7347.33, -5591.69, -4820.22, -6521.34, 4141.20, 0.06, 0.77, 0.70
95, 28436.13, 17580.34, 13282.39, -7306.23, -5654.68, -4933.41, -6591.89, 4051.61, 0.06, 0.77, 0.70
96, 28615.89, 17486.66, 13423.36, -7130.50, -5529.69, -4883.45, -6478.52, 4128.77, 0.06, 0.77, 0.70
97, 28578.67, 17647.37, 13476.34, -7168.38, -5474.88, -4770.33, -6408.98, 4200.92, 0.06, 0.77, 0.70
98, 28426.70, 17756.02, 13358.23, -7318.16, -5571.42, -4786.45, -6491.64, 4144.46, 0.05, 0.77, 0.71
99, 28431.48, 17616.79, 13281.92, -7314.99, -5649.13, -4906.34, -6582.72, 4038.60, 0.05, 0.77, 0.71
100, 28595.35, 17485.61, 13383.40, -7158.68, -5565.94, -4902.36, -6514.80, 4065.40, 0.05, 0.77, 0.71
101, 28593.78, 17615.54, 13453.74, -7164.27, -5494.80, -4790.69, -6426.73, 4163.01, 0.05, 0.77, 0.71
102, 28425.76, 17763.13, 13344.64, -7329.16, -5587.02, -4782.69, -6488.91, 4144.86, 0.05, 0.77, 0.71
103, 28410.88, 17661.23, 13257.76, -7346.39, -5680.94, -4887.92, -6584.00, 4047.99, 0.06, 0.77, 0.71
104, 28571.59, 17500.57, 13341.24, -7200.19, -5617.17, -4924.51, -6543.12, 4040.88, 0.06, 0.77, 0.71
105, 28621.23, 17583.69, 13439.08, -7158.84, -5520.52, -4828.60, -6446.38, 4128.72, 0.06, 0.77, 0.71
106, 28481.93, 17760.67, 13378.79, -7292.10, -5570.59, -4768.10, -6481.07, 4135.14, 0.06, 0.77, 0.71
107, 28396.30, 17702.98, 13250.29, -7373.93, -5695.16, -4884.68, -6604.74, 4017.73, 0.06, 0.77, 0.71
108, 28534.21, 17520.55, 13308.41, -7228.40, -5651.03, -4924.63, -6565.02, 4025.66, 0.06, 0.77, 0.71
109, 28626.30, 17552.67, 13429.62, -7139.77, -5533.49, -4792.71, -6442.02, 4123.36, 0.07, 0.77, 0.71
110, 28522.50, 17744.74, 13405.08, -7249.50, -5543.03, -4662.51, -6437.06, 4146.43, 0.07, 0.77, 0.71
111, 28405.74, 17744.07, 13268.73, -7361.59, -5668.16, -4758.22, -6554.96, 4033.73, 0.07, 0.77, 0.71
112, 28512.67, 17558.26, 13284.16, -7249.61, -5658.95, -4829.00, -6557.42, 4016.30, 0.07, 0.77, 0.71
113, 28612.69, 17531.52, 13381.43, -7156.58, -5568.20, -4781.75, -6478.12, 4075.24, 0.07, 0.77, 0.71
114, 28514.61, 17710.40, 13378.14, -7251.93, -5565.36, -4704.82, -6458.38, 4100.02, 0.07, 0.77, 0.71
115, 28402.94, 17752.63, 13261.49, -7362.11, -5669.90, -4759.27, -6556.26, 4020.43, 0.07, 0.77, 0.71
116, 28503.03, 17575.96, 13266.41, -7263.06, -5671.51, -4833.14, -6573.76, 3983.89, 0.07, 0.77, 0.71
117, 28619.89, 17507.03, 13360.73, -7162.21, -5595.22, -4798.67, -6501.72, 4037.98, 0.07, 0.77, 0.71
118, 28564.48, 17674.93, 13374.43, -7230.32, -5576.07, -4710.36, -6465.67, 4081.74, 0.07, 0.77, 0.71
119, 28408.64, 17768.90, 13260.13, -7360.63, -5676.96, -4724.51, -6548.66, 4030.15, 0.08, 0.76, 0.72
120, 28444.63, 17602.67, 13215.85, -7313.18, -5729.74, -4821.36, -6611.18, 3951.41, 0.08, 0.76, 0.72
121, 28601.65, 17487.31, 13339.30, -7154.30, -5620.48, -4797.22, -6509.99, 4001.83, 0.08, 0.76, 0.72
122, 28596.57, 17638.95, 13403.16, -7165.43, -5558.05, -4685.80, -6437.66, 4078.81, 0.08, 0.76, 0.72
123, 28426.88, 17784.57, 13292.43, -7317.40, -5646.52, -4688.97, -6501.81, 4040.48, 0.08, 0.76, 0.72
124, 28418.32, 17661.81, 13210.22, -7322.03, -5717.91, -4809.11, -6567.01, 3950.51, 0.10, 0.76, 0.71
125, 28566.33, 17522.20, 13306.53, -7173.14, -5640.84, -4826.46, -6499.37, 3970.52, 0.10, 0.76, 0.71
126, 28577.02, 17634.65, 13389.90, -7164.47, -5558.79, -4728.89, -6405.50, 4048.64, 0.10, 0.76, 0.71
127, 28427.71, 17811.72, 13297.77, -7318.83, -5638.07, -4704.39, -6472.04, 4021.95, 0.10, 0.76, 0.71
128, 28376.48, 17737.70, 13200.85, -7358.82, -5741.54, -4795.39, -6572.89, 3931.29, 0.10, 0.76, 0.71
129, 28521.52, 17582.82, 13257.62, -7226.52, -5703.40, -4846.86, -6551.50, 3905.77, 0.11, 0.76, 0.72
130, 28593.20, 17687.58, 13365.25, -7157.56, -5599.80, -4741.63, -6443.38, 3992.78, 0.11, 0.76, 0.72
131, 28451.76, 17932.74, 13301.30, -7292.95, -5647.82, -4671.20, -6454.36, 4031.76, 0.11, 0.76, 0.72
132, 28371.25, 17965.37, 13179.57, -7359.33, -5766.03, -4737.16, -6554.51, 3953.33, 0.11, 0.76, 0.72
133, 28490.38, 17860.38, 13223.02, -7240.13, -5753.07, -4788.26, -6548.01, 3911.96, 0.11, 0.76, 0.72
134, 28602.43, 17986.58, 13348.28, -7143.64, -5639.32, -4706.11, -6430.95, 3981.52, 0.11, 0.76, 0.71
135, 28486.67, 18313.99, 13322.40, -7257.32, -5654.45, -4621.80, -6420.74, 4024.23, 0.11, 0.76, 0.71
136, 28380.95, 18453.64, 13185.88, -7375.05, -5784.72, -4710.90, -6549.19, 3918.39, 0.11, 0.76, 0.71
137, 28492.86, 18376.62, 13204.92, -7271.00, -5781.88, -4801.18, -6565.62, 3863.14, 0.11, 0.76, 0.71
138, 28606.95, 18436.81, 13324.52, -7162.37, -5672.00, -4743.62, -6462.09, 3937.80, 0.11, 0.76, 0.71
139, 28520.20, 18707.94, 13323.07, -7246.86, -5659.39, -4638.32, -6425.03, 4020.01, 0.11, 0.76, 0.71
140, 28382.18, 18847.68, 13202.48, -7380.55, -5769.92, -4690.83, -6511.00, 3954.67, 0.10, 0.77, 0.71
141, 28428.47, 18738.72, 13164.39, -7342.59, -5817.29, -4816.26, -6561.13, 3868.62, 0.10, 0.77, 0.71
142, 28575.16, 18720.32, 13279.89, -7208.08, -5720.68, -4781.33, -6483.28, 3908.90, 0.10, 0.77, 0.71
143, 28553.86, 18962.62, 13330.65, -7238.14, -5662.86, -4647.73, -6421.70, 3991.19, 0.10, 0.77, 0.71
144, 28404.60, 19148.13, 13209.34, -7389.24, -5771.15, -4668.92, -6512.38, 3946.16, 0.10, 0.77, 0.71
145, 28429.29, 19065.39, 13147.65, -7366.80, -5835.12, -4775.65, -6577.38, 3885.83, 0.08, 0.77, 0.71
146, 28582.74, 19008.28, 13246.65, -7225.02, -5747.37, -4771.27, -6503.37, 3929.46, 0.08, 0.77, 0.71
147, 28592.95, 19210.94, 13319.27, -7224.89, -5667.98, -4656.34, -6416.67, 4014.91, 0.08, 0.77, 0.71
148, 28442.64, 19417.83, 13219.54, -7383.21, -5759.26, -4653.99, -6494.79, 3966.27, 0.08, 0.77, 0.71
149, 28436.80, 19347.92, 13146.27, -7390.78, -5843.80, -4762.58, -6585.49, 3868.06, 0.08, 0.77, 0.71
150, 28569.17, 19219.46, 13224.74, -7269.26, -5788.79, -4797.56, -6547.03, 3878.56, 0.06, 0.77, 0.71
151, 28600.35, 19335.22, 13308.50, -7254.62, -5705.93, -4701.82, -6463.16, 3960.33, 0.06, 0.77, 0.71
152, 28451.67, 19524.54, 13222.38, -7406.52, -5767.42, -4674.38, -6505.94, 3941.35, 0.06, 0.77, 0.71
153, 28395.92, 19460.61, 13118.48, -7461.39, -5873.05, -4777.19, -6613.79, 3843.38, 0.06, 0.77, 0.71
154, 28546.11, 19284.28, 13193.03, -7322.14, -5819.95, -4819.68, -6590.72, 3834.24, 0.06, 0.77, 0.71
155, 28632.07, 19343.33, 13310.78, -7245.45, -5698.55, -4712.26, -6484.17, 3931.56, 0.04, 0.77, 0.71
156, 28499.57, 19536.52, 13256.80, -7377.80, -5730.63, -4648.78, -6502.10, 3948.30, 0.04, 0.77, 0.71
157, 28413.51, 19519.02, 13143.67, -7456.34, -5831.30, -4714.34, -6578.45, 3890.12, 0.04, 0.77, 0.71
158, 28525.65, 19327.71, 13170.52, -7346.15, -5827.57, -4791.92, -6590.70, 3845.33, 0.04, 0.77, 0.71
159, 28643.27, 19321.09, 13300.29, -7239.64, -5710.76, -4718.61, -6480.26, 3924.77, 0.04, 0.77, 0.71
160, 28538.44, 19509.52, 13287.08, -7347.85, -5711.83, -4655.35, -6460.01, 3951.01, 0.03, 0.76, 0.71
161, 28387.27, 19524.16, 13134.62, -7494.14, -5861.45, -4756.58, -6592.85, 3838.58, 0.03, 0.76, 0.71
162, 28487.54, 19320.69, 13140.50, -7397.78, -5881.06, -4838.62, -6620.41, 3799.44, 0.03, 0.76, 0.71
163, 28635.71, 19263.36, 13280.36, -7259.85, -5757.72, -4766.08, -6494.28, 3891.57, 0.03, 0.76, 0.71
164, 28567.83, 19434.30, 13301.99, -7333.79, -5727.17, -4661.86, -6446.82, 3953.87, 0.03, 0.76, 0.71
165, 28406.16, 19488.24, 13157.15, -7497.20, -5855.04, -4738.97, -6567.17, 3859.34, 0.02, 0.76, 0.71
166, 28464.57, 19296.93, 13124.12, -7437.54, -5885.91, -4838.10, -6605.21, 3797.76, 0.02, 0.76, 0.71
167, 28646.20, 19193.02, 13262.50, -7260.99, -5754.93, -4776.63, -6481.80, 3884.51, 0.02, 0.76, 0.71
168, 28619.66, 19354.46, 13318.20, -7296.61, -5702.47, -4670.20, -6419.02, 3953.89, 0.02, 0.76, 0.71
169, 28439.78, 19461.64, 13178.79, -7472.17, -5829.25, -4707.28, -6527.02, 3880.96, 0.02, 0.76, 0.71
170, 28461.30, 19306.92, 13118.77, -7444.74, -5886.96, -4804.55, -6582.75, 3811.11, 0.02, 0.76, 0.71
171, 28610.32, 19164.52, 13213.41, -7304.42, -5801.33, -4811.70, -6516.74, 3830.71, 0.02, 0.76, 0.71
172, 28614.61, 19275.41, 13278.03, -7306.58, -5737.63, -4711.57, -6448.05, 3901.97, 0.02, 0.76, 0.71
173, 28455.49, 19409.03, 13172.71, -7464.45, -5830.97, -4704.06, -6519.02, 3868.15, 0.02, 0.76, 0.71
174, 28417.40, 19282.96, 13066.11, -7498.38, -5943.44, -4827.53, -6636.50, 3741.75, 0.02, 0.76, 0.71
175, 28583.72, 19106.72, 13156.93, -7341.01, -5871.67, -4840.99, -6586.79, 3756.61, 0.02, 0.76, 0.71
176, 28639.02, 19180.30, 13263.10, -7291.12, -5758.01, -4717.42, -6468.64, 3872.60, 0.02, 0.76, 0.70
177, 28509.00, 19342.64, 13209.25, -7416.96, -5786.35, -4653.99, -6485.87, 3894.70, 0.02, 0.76, 0.70
178, 28435.84, 19274.11, 13090.86, -7491.77, -5897.64, -4764.88, -6610.55, 3773.26, 0.02, 0.76, 0.70
179, 28579.65, 19086.06, 13148.66, -7348.74, -5851.57, -4817.72, -6581.27, 3753.80, 0.02, 0.76, 0.70
180, 28655.67, 19122.56, 13261.83, -7274.35, -5743.93, -4718.94, -6469.60, 3843.34, 0.02, 0.76, 0.70
181, 28517.45, 19300.55, 13202.44, -7411.95, -5783.87, -4668.81, -6491.04, 3842.71, 0.02, 0.77, 0.71
182, 28403.77, 19268.48, 13063.21, -7521.34, -5917.98, -4769.04, -6619.07, 3741.61, 0.02, 0.77, 0.71
183, 28530.19, 19064.00, 13094.03, -7393.93, -5903.94, -4825.83, -6613.57, 3730.51, 0.02, 0.77, 0.71
184, 28672.19, 19044.20, 13237.98, -7262.26, -5771.35, -4728.09, -6489.07, 3827.56, 0.02, 0.77, 0.71
185, 28580.26, 19228.15, 13231.34, -7365.44, -5771.09, -4651.38, -6481.83, 3848.75, 0.02, 0.77, 0.71
186, 28428.69, 19246.44, 13080.20, -7517.99, -5915.66, -4749.28, -6620.41, 3728.05, 0.01, 0.77, 0.70
187, 28511.21, 19048.20, 13070.41, -7431.75, -5933.23, -4837.68, -6652.75, 3673.91, 0.01, 0.77, 0.70
188, 28647.02, 18982.64, 13191.13, -7303.92, -5822.74, -4787.14, -6544.90, 3751.94, 0.01, 0.77, 0.70
189, 28582.54, 19148.09, 13212.52, -7369.95, -5789.41, -4689.04, -6489.65, 3819.31, 0.01, 0.77, 0.70
190, 28434.97, 19213.07, 13082.30, -7510.77, -5898.69, -4722.79, -6582.52, 3761.22, 0.01, 0.77, 0.70
191, 28483.05, 19041.47, 13035.74, -7468.66, -5953.81, -4839.78, -6660.62, 3673.73, 0.01, 0.78, 0.70
192, 28634.62, 18931.28, 13147.21, -7321.83, -5854.12, -4832.27, -6573.18, 3711.42, 0.01, 0.78, 0.70
193, 28630.28, 19072.25, 13214.87, -7331.13, -5779.16, -4708.08, -6472.71, 3819.31, 0.01, 0.78, 0.70
194, 28471.16, 19188.44, 13101.61, -7489.78, -5880.14, -4720.04, -6552.32, 3770.09, 0.01, 0.78, 0.70
195, 28459.92, 19050.14, 13019.04, -7494.74, -5972.07, -4836.27, -6648.35, 3665.60, 0.01, 0.78, 0.70
196, 28630.01, 18908.21, 13123.02, -7329.61, -5883.22, -4827.31, -6581.38, 3698.25, 0.01, 0.78, 0.70
197, 28648.68, 19023.23, 13202.17, -7318.79, -5800.61, -4716.42, -6502.39, 3789.40, 0.02, 0.77, 0.70
198, 28482.63, 19166.38, 13093.85, -7487.36, -5887.81, -4718.27, -6568.89, 3748.03, 0.02, 0.77, 0.70
199, 28429.52, 19058.21, 12980.46, -7538.10, -5996.17, -4835.96, -6670.56, 3634.80, 0.02, 0.77, 0.70
200, 28574.56, 18880.99, 13040.97, -7394.27, -5945.12, -4857.41, -6629.84, 3650.42, 0.02, 0.77, 0.70
201, 28648.92, 18950.99, 13155.21, -7326.07, -5836.06, -4736.58, -6508.58, 3756.05, 0.02, 0.77, 0.70
202, 28514.81, 19118.99, 13100.42, -7460.72, -5885.53, -4700.28, -6535.40, 3743.40, 0.02, 0.78, 0.70
203, 28427.48, 19064.88, 12967.77, -7545.59, -6012.42, -4807.66, -6657.18, 3633.90, 0.02, 0.78, 0.70
204, 28552.83, 18880.83, 13001.09, -7421.54, -5990.29, -4865.95, -6655.03, 3608.15, 0.02, 0.78, 0.70
205, 28647.27, 18906.54, 13119.38, -7334.77, -5878.98, -4783.05, -6554.87, 3684.93, 0.02, 0.78, 0.70
206, 28532.16, 19082.06, 13090.70, -7452.00, -5893.37, -4716.04, -6551.56, 3711.60, 0.02, 0.78, 0.70
207, 28430.95, 19068.88, 12970.29, -7552.61, -6007.97, -4788.46, -6652.04, 3635.87, 0.01, 0.78, 0.70
208, 28535.31, 18878.13, 12982.50, -7446.73, -6010.43, -4859.52, -6662.85, 3600.06, 0.01, 0.78, 0.70
209, 28667.50, 18860.49, 13117.19, -7318.65, -5875.40, -4783.70, -6532.61, 3695.53, 0.01, 0.78, 0.70
210, 28561.48, 19044.29, 13098.81, -7427.86, -5869.14, -4717.38, -6520.29, 3724.87, 0.01, 0.78, 0.70
211, 28423.26, 19083.67, 12958.49, -7568.21, -5998.85, -4788.19, -6638.51, 3639.69, 0.01, 0.78, 0.70
212, 28487.03, 18905.98, 12931.47, -7501.65, -6041.72, -4873.17, -6689.23, 3584.62, 0.02, 0.78, 0.71
213, 28617.43, 18832.64, 13040.14, -7373.28, -5948.80, -4835.62, -6610.73, 3627.20, 0.02, 0.78, 0.71
214, 28589.62, 18992.19, 13091.06, -7405.18, -5889.75, -4730.68, -6547.05, 3699.21, 0.02, 0.78, 0.71
215, 28439.64, 19077.68, 12975.88, -7554.91, -5995.52, -4767.56, -6643.63, 3634.57, 0.02, 0.78, 0.71
216, 28459.76, 18917.49, 12907.17, -7535.06, -6071.34, -4888.80, -6732.73, 3536.00, 0.02, 0.78, 0.71
217, 28626.37, 18810.76, 13026.80, -7371.40, -5969.06, -4865.57, -6646.89, 3582.78, 0.03, 0.78, 0.71
218, 28620.74, 18954.37, 13097.58, -7381.64, -5888.10, -4762.60, -6554.98, 3658.91, 0.03, 0.78, 0.71
219, 28465.66, 19076.79, 12994.25, -7536.43, -5968.43, -4767.56, -6614.19, 3625.99, 0.03, 0.78, 0.71
220, 28431.42, 18946.77, 12886.52, -7567.32, -6080.59, -4886.02, -6727.90, 3525.23, 0.03, 0.78, 0.71
221, 28594.07, 18803.54, 12964.62, -7415.55, -6018.36, -4896.26, -6680.29, 3541.77, 0.03, 0.78, 0.71
222, 28645.41, 18920.55, 13060.17, -7376.32, -5922.32, -4776.84, -6581.07, 3649.41, 0.03, 0.78, 0.71
223, 28470.06, 19074.62, 12984.11, -7532.22, -5990.29, -4758.31, -6629.21, 3638.64, 0.03, 0.78, 0.71
224, 28388.73, 18974.64, 12863.92, -7598.72, -6103.12, -4880.15, -6736.41, 3527.69, 0.03, 0.78, 0.71
225, 28542.42, 18798.96, 12935.24, -7447.20, -6052.67, -4901.87, -6694.21, 3521.27, 0.03, 0.78, 0.71
226, 28620.74, 18865.07, 13053.73, -7372.92, -5933.83, -4791.79, -6570.23, 3625.83, 0.03, 0.78, 0.71
227, 28476.86, 19037.11, 12996.96, -7509.05, -5970.22, -4744.74, -6585.25, 3642.95, 0.03, 0.78, 0.71
228, 28373.33, 18991.00, 12857.26, -7612.09, -6108.93, -4852.81, -6715.00, 3533.77, 0.02, 0.77, 0.70
229, 28506.95, 18817.35, 12895.21, -7479.43, -6085.31, -4905.05, -6710.26, 3516.69, 0.02, 0.77, 0.70
230, 28628.49, 18845.22, 13027.89, -7372.03, -5956.96, -4809.76, -6595.08, 3610.01, 0.02, 0.77, 0.70
231, 28512.73, 19026.14, 12994.37, -7494.63, -5977.73, -4761.82, -6608.54, 3614.08, 0.02, 0.77, 0.70
232, 28393.64, 19032.91, 12863.96, -7607.91, -6103.86, -4848.16, -6730.67, 3516.24, 0.02, 0.77, 0.70
233, 28483.47, 18851.19, 12860.03, -7516.71, -6127.64, -4930.62, -6760.15, 3469.80, 0.02, 0.77, 0.70
234, 28627.53, 18825.49, 13000.15, -7377.39, -5998.00, -4846.71, -6633.13, 3564.16, 0.02, 0.77, 0.70
235, 28545.70, 19004.88, 13008.33, -7461.75, -5975.76, -4758.91, -6599.80, 3619.48, 0.02, 0.77, 0.70
236, 28400.44, 19054.41, 12880.10, -7610.12, -6095.79, -4831.51, -6714.62, 3525.65, 0.02, 0.77, 0.70
237, 28454.87, 18879.13, 12845.68, -7559.45, -6139.22, -4942.02, -6770.66, 3443.20, 0.02, 0.77, 0.70
238, 28609.25, 18807.52, 12959.90, -7408.84, -6039.08, -4902.77, -6683.19, 3499.10, 0.02, 0.78, 0.71
239, 28588.84, 18975.13, 13017.19, -7436.81, -5972.12, -4798.63, -6602.46, 3578.92, 0.02, 0.78, 0.71
240, 28432.65, 19069.35, 12903.71, -7593.31, -6073.73, -4839.42, -6690.59, 3521.03, 0.02, 0.78, 0.71
241, 28434.19, 18921.58, 12827.64, -7590.52, -6153.28, -4954.29, -6770.39, 3439.67, 0.02, 0.78, 0.71
242, 28593.33, 18814.92, 12929.05, -7431.71, -6067.58, -4925.81, -6688.89, 3502.43, 0.02, 0.78, 0.71
243, 28594.12, 18953.03, 12993.00, -7442.33, -5994.98, -4825.96, -6608.32, 3574.38, 0.02, 0.78, 0.71
244, 28428.69, 19076.41, 12882.29, -7610.12, -6079.54, -4845.57, -6691.93, 3518.19, 0.02, 0.78, 0.71
245, 28388.14, 18953.59, 12772.26, -7644.27, -6191.68, -4968.48, -6801.84, 3413.16, 0.02, 0.78, 0.71
246, 28535.67, 18810.51, 12839.80, -7500.17, -6134.61, -4988.55, -6755.57, 3430.57, 0.02, 0.78, 0.71
247, 28591.70, 18914.22, 12940.41, -7453.03, -6034.77, -4883.45, -6649.62, 3526.41, 0.02, 0.78, 0.71
248, 28453.97, 19077.06, 12876.26, -7597.00, -6093.13, -4865.68, -6698.88, 3497.73, 0.01, 0.77, 0.71
249, 28385.02, 19007.23, 12763.87, -7664.12, -6208.80, -4963.58, -6813.26, 3406.12, 0.01, 0.77, 0.71
250, 28531.06, 18849.14, 12833.23, -7514.23, -6155.04, -4978.45, -6775.28, 3424.76, 0.01, 0.77, 0.71
251, 28617.41, 18912.57, 12943.02, -7437.90, -6046.66, -4891.72, -6669.54, 3509.72, 0.01, 0.77, 0.71
252, 28506.16, 19094.29, 12914.73, -7553.06, -6060.88, -4841.23, -6660.06, 3528.58, 0.01, 0.77, 0.71
253, 28373.44, 19059.51, 12764.88, -7681.20, -6209.78, -4947.04, -6796.18, 3416.11, 0.01, 0.77, 0.71
254, 28493.13, 18880.38, 12785.31, -7558.26, -6198.67, -4987.88, -6796.25, 3399.50, 0.01, 0.77, 0.70
255, 28620.13, 18904.61, 12923.67, -7437.07, -6062.06, -4878.36, -6666.90, 3503.10, 0.01, 0.77, 0.70
0, 28515.75, 19091.36, 12900.08, -7551.58, -6074.22, -4822.37, -6673.47, 3510.23, 0.01, 0.77, 0.70
1, 28382.11, 19100.86, 12761.08, -7683.88, -6191.05, -4907.97, -6778.84, 3412.62, 0.01, 0.77, 0.70
2, 28449.81, 18919.97, 12736.38, -7613.23, -6216.24, -4995.21, -6807.94, 3365.95, 0.01, 0.77, 0.70
3, 28608.40, 18889.66, 12880.13, -7460.77, -6089.04, -4918.23, -6689.45, 3456.34, 0.01, 0.78, 0.70
4, 28533.92, 19068.85, 12895.48, -7543.20, -6072.19, -4848.88, -6662.41, 3492.06, 0.01, 0.78, 0.70
5, 28386.09, 19119.75, 12763.25, -7691.32, -6191.52, -4904.08, -6765.34, 3417.51, 0.01, 0.78, 0.70
6, 28436.34, 18952.85, 12723.42, -7639.94, -6243.31, -4989.56, -6821.06, 3356.23, 0.01, 0.78, 0.70
7, 28593.54, 18885.05, 12836.00, -7487.59, -6140.74, -4945.99, -6725.73, 3422.28, 0.01, 0.78, 0.70
8, 28574.63, 19053.70, 12896.42, -7510.79, -6077.86, -4845.70, -6651.34, 3499.57, 0.00, 0.77, 0.71
9, 28432.02, 19160.14, 12791.97, -7660.75, -6167.81, -4872.64, -6722.11, 3440.18, 0.00, 0.77, 0.71
10, 28428.04, 19024.31, 12702.14, -7664.93, -6254.98, -4984.04, -6811.83, 3342.30, 0.00, 0.77, 0.71
11, 28568.37, 18911.47, 12792.91, -7524.51, -6191.41, -4984.15, -6762.68, 3377.39, 0.00, 0.77, 0.71
12, 28592.66, 19042.21, 12877.87, -7510.95, -6106.45, -4881.00, -6670.03, 3467.34, 0.00, 0.77, 0.71
13, 28438.21, 19178.13, 12781.49, -7666.13, -6186.87, -4884.50, -6733.44, 3431.13, 0.00, 0.77, 0.70
14, 28391.32, 19070.17, 12675.61, -7708.18, -6292.55, -4996.02, -6848.48, 3312.42, 0.00, 0.77, 0.70
15, 28536.92, 18923.97, 12738.68, -7568.77, -6245.66, -5024.76, -6821.37, 3304.66, 0.00, 0.77, 0.70
16, 28596.33, 19023.44, 12844.18, -7514.12, -6140.34, -4919.86, -6710.91, 3408.22, 0.00, 0.77, 0.70
17, 28434.95, 19179.23, 12764.75, -7677.00, -6201.20, -4903.32, -6750.94, 3397.49, 0.00, 0.77, 0.70
18, 28371.34, 19099.52, 12651.78, -7741.64, -6310.55, -5000.17, -6854.21, 3307.57, -0.00, 0.77, 0.70
19, 28520.80, 18934.43, 12715.66, -7589.29, -6262.33, -5021.59, -6817.30, 3320.62, -0.00, 0.77, 0.70
20, 28608.53, 19000.90, 12825.68, -7510.32, -6153.30, -4937.32, -6713.10, 3406.09, -0.00, 0.77, 0.70
21, 28482.13, 19180.68, 12779.05, -7643.65, -6179.41, -4904.82, -6733.82, 3396.48, -0.00, 0.77, 0.70
22, 28358.73, 19151.60, 12637.41, -7765.44, -6311.33, -5016.16, -6862.23, 3278.58, -0.00, 0.77, 0.70
23, 28472.39, 18978.69, 12653.79, -7643.11, -6309.50, -5070.69, -6860.96, 3268.92, -0.00, 0.77, 0.70
24, 28612.89, 18996.43, 12789.09, -7510.68, -6183.48, -4983.25, -6736.30, 3364.34, -0.00, 0.77, 0.70
25, 28531.62, 19187.92, 12793.69, -7604.40, -6169.89, -4917.81, -6712.65, 3390.11, -0.00, 0.77, 0.70
26, 28390.25, 19215.12, 12669.64, -7735.71, -6288.08, -4982.85, -6816.90, 3311.70, -0.00, 0.77, 0.70
27, 28457.79, 19044.83, 12648.54, -7662.92, -6324.90, -5063.63, -6862.45, 3260.36, -0.00, 0.77, 0.70
28, 28613.61, 19010.45, 12774.89, -7513.47, -6215.37, -5000.73, -6764.11, 3331.73, -0.00, 0.77, 0.70
29, 28565.75, 19194.78, 12816.18, -7569.33, -6163.29, -4917.09, -6703.20, 3388.01, 0.01, 0.78, 0.70
30, 28401.11, 19263.16, 12678.45, -7732.85, -6279.77, -4989.31, -6810.78, 3292.70, 0.01, 0.78, 0.70
31, 28446.13, 19101.69, 12636.11, -7679.61, -6329.86, -5075.01, -6873.43, 3226.99, 0.01, 0.78, 0.70
32, 28600.71, 19022.12, 12750.78, -7523.75, -6223.19, -5027.76, -6784.29, 3295.32, 0.01, 0.78, 0.70
33, 28582.27, 19176.81, 12807.66, -7549.99, -6165.01, -4935.85, -6715.72, 3362.60, 0.01, 0.78, 0.70
34, 28409.18, 19277.28, 12690.18, -7725.99, -6282.25, -4986.50, -6820.46, 3269.01, 0.02, 0.79, 0.71
35, 28412.11, 19136.36, 12610.61, -7718.79, -6365.98, -5095.46, -6915.09, 3166.01, 0.02, 0.79, 0.71
36, 28570.29, 19021.85, 12706.47, -7556.54, -6289.47, -5070.20, -6844.08, 3225.00, 0.02, 0.79, 0.71
37, 28598.86, 19152.83, 12797.29, -7528.56, -6196.46, -4951.51, -6743.01, 3340.09, 0.02, 0.79, 0.71
38, 28451.31, 19305.18, 12711.91, -7678.02, -6253.28, -4951.20, -6777.47, 3323.68, 0.02, 0.79, 0.71
39, 28401.78, 19206.21, 12604.39, -7724.79, -6363.23, -5066.29, -6885.37, 3213.80, 0.02, 0.78, 0.72
40, 28558.09, 19061.10, 12676.46, -7570.69, -6306.32, -5081.13, -6843.43, 3225.76, 0.02, 0.78, 0.72
41, 28640.83, 19165.46, 12798.25, -7494.81, -6184.77, -4964.01, -6713.59, 3345.39, 0.02, 0.78, 0.72
42, 28484.68, 19337.92, 12721.92, -7652.54, -6249.08, -4951.05, -6760.37, 3322.16, 0.02, 0.78, 0.72
43, 28381.73, 19275.32, 12585.10, -7752.28, -6387.86, -5064.21, -6898.24, 3197.95, 0.02, 0.78, 0.72
44, 28510.68, 19104.62, 12623.93, -7619.04, -6364.88, -5107.66, -6892.34, 3189.12, 0.03, 0.77, 0.71
45, 28615.53, 19158.30, 12754.08, -7517.32, -6246.08, -5022.66, -6777.34, 3280.34, 0.03, 0.77, 0.71
46, 28495.05, 19344.43, 12726.70, -7642.82, -6263.88, -4988.04, -6791.96, 3281.15, 0.03, 0.77, 0.71
47, 28369.97, 19331.96, 12588.79, -7768.73, -6397.90, -5079.12, -6914.40, 3182.24, 0.03, 0.77, 0.71
48, 28459.13, 19156.09, 12584.19, -7675.92, -6421.34, -5147.54, -6941.38, 3145.45, 0.03, 0.77, 0.71
49, 28612.67, 19157.48, 12724.40, -7535.51, -6292.17, -5060.26, -6809.59, 3237.11, 0.02, 0.78, 0.71
50, 28533.59, 19352.79, 12732.36, -7629.43, -6272.37, -4996.75, -6740.68, 3266.91, 0.02, 0.78, 0.71
51, 28390.13, 19384.44, 12595.50, -7771.23, -6393.43, -5076.98, -6847.10, 3172.56, 0.02, 0.78, 0.71
52, 28454.55, 19213.16, 12570.71, -7702.90, -6427.06, -5163.25, -6882.10, 3119.83, 0.02, 0.78, 0.71
53, 28612.42, 19173.13, 12696.35, -7548.90, -6314.14, -5099.98, -6771.73, 3207.50, 0.02, 0.78, 0.71
54, 28564.81, 19349.86, 12728.27, -7609.79, -6269.75, -5025.77, -6714.06, 3268.45, 0.02, 0.78, 0.71
55, 28399.88, 19423.06, 12596.75, -7775.19, -6378.76, -5083.21, -6807.47, 3195.65, 0.02, 0.78, 0.71
56, 28409.89, 19257.39, 12525.94, -7758.27, -6449.82, -5185.98, -6885.03, 3109.73, 0.02, 0.78, 0.71
57, 28559.43, 19170.49, 12632.78, -7610.57, -6367.88, -5155.52, -6812.54, 3157.00, 0.02, 0.78, 0.71
58, 28576.91, 19331.29, 12718.66, -7596.93, -6280.19, -5042.13, -6719.38, 3243.10, 0.02, 0.78, 0.71
59, 28409.18, 19458.04, 12612.91, -7767.75, -6374.54, -5068.28, -6798.15, 3182.98, 0.02, 0.78, 0.71
60, 28387.36, 19324.07, 12517.83, -7786.10, -6477.36, -5185.22, -6903.16, 3075.85, 0.02, 0.77, 0.70
61, 28541.19, 19206.23, 12597.71, -7636.58, -6417.83, -5186.86, -6854.85, 3097.75, 0.02, 0.77, 0.70
62, 28587.57, 19332.34, 12684.61, -7601.85, -6326.04, -5085.38, -6757.80, 3186.71, 0.02, 0.77, 0.70
63, 28437.45, 19484.64, 12611.14, -7752.77, -6382.41, -5064.52, -6794.26, 3181.79, 0.02, 0.77, 0.70
64, 28371.34, 19388.64, 12496.86, -7817.77, -6499.60, -5174.70, -6912.77, 3072.43, 0.02, 0.77, 0.70
65, 28520.91, 19230.50, 12557.30, -7666.63, -6454.00, -5194.77, -6881.81, 3074.66, 0.02, 0.76, 0.70
66, 28620.36, 19320.69, 12689.08, -7573.91, -6321.90, -5074.02, -6747.52, 3190.93, 0.02, 0.76, 0.70
67, 28476.03, 19500.96, 12628.74, -7727.53, -6368.77, -5062.58, -6787.42, 3166.37, 0.02, 0.76, 0.70
68, 28372.05, 19446.58, 12499.01, -7824.88, -6504.13, -5170.23, -6920.23, 3064.38, 0.02, 0.76, 0.70
69, 28504.98, 19275.47, 12536.44, -7690.94, -6495.57, -5202.86, -6930.83, 3059.98, 0.02, 0.76, 0.70
70, 28636.56, 19324.80, 12664.99, -7577.44, -6371.03, -5102.61, -6805.64, 3162.62, 0.02, 0.77, 0.70
71, 28508.33, 19518.97, 12639.67, -7695.55, -6363.03, -5050.38, -6758.85, 3199.09, 0.02, 0.77, 0.70
72, 28338.90, 19495.04, 12486.20, -7833.64, -6499.71, -5155.38, -6885.81, 3083.89, 0.02, 0.77, 0.70
73, 28446.57, 19315.55, 12496.14, -7724.58, -6508.20, -5215.04, -6905.82, 3045.85, 0.02, 0.77, 0.70
74, 28585.76, 19314.75, 12625.79, -7593.78, -6394.34, -5138.49, -6792.90, 3132.80, 0.02, 0.77, 0.70
75, 28504.64, 19499.93, 12640.65, -7675.63, -6368.50, -5069.13, -6760.26, 3171.24, 0.01, 0.76, 0.70
76, 28338.01, 19536.34, 12499.90, -7834.87, -6496.69, -5143.18, -6884.27, 3072.98, 0.01, 0.76, 0.70
77, 28369.35, 19348.25, 12455.64, -7787.06, -6553.11, -5227.76, -6944.93, 3011.23, 0.01, 0.76, 0.70
78, 28543.51, 19295.48, 12585.86, -7622.41, -6443.63, -5170.11, -6844.48, 3087.02, 0.01, 0.76, 0.70
79, 28523.98, 19478.88, 12648.14, -7651.72, -6375.03, -5073.60, -6771.59, 3151.51, 0.01, 0.76, 0.70
80, 28356.18, 19566.38, 12511.12, -7820.81, -6495.10, -5126.73, -6876.45, 3080.58, 0.02, 0.77, 0.70
81, 28367.31, 19412.56, 12439.30, -7808.45, -6576.91, -5223.98, -6960.04, 3000.27, 0.02, 0.77, 0.70
82, 28514.48, 19320.69, 12530.41, -7667.18, -6508.69, -5207.62, -6901.15, 3033.31, 0.02, 0.77, 0.70
83, 28525.34, 19472.21, 12595.34, -7668.32, -6437.17, -5122.77, -6830.42, 3093.70, 0.02, 0.77, 0.70
84, 28379.29, 19598.52, 12504.53, -7815.53, -6515.44, -5133.35, -6901.77, 3046.32, 0.02, 0.77, 0.70
85, 28348.47, 19476.88, 12408.86, -7840.70, -6615.22, -5225.77, -7000.57, 2965.76, 0.02, 0.77, 0.70
86, 28510.19, 19344.50, 12501.53, -7676.64, -6545.73, -5213.03, -6939.66, 3001.97, 0.01, 0.79, 0.70
87, 28562.80, 19470.80, 12600.55, -7637.95, -6450.09, -5123.13, -6844.91, 3082.53, 0.01, 0.79, 0.70
88, 28421.09, 19640.19, 12532.91, -7787.57, -6506.59, -5117.19, -6890.55, 3061.45, 0.01, 0.79, 0.70
89, 28349.28, 19554.18, 12424.53, -7855.45, -6617.88, -5216.09, -7004.39, 2965.85, 0.01, 0.79, 0.70
90, 28482.49, 19392.64, 12471.29, -7720.72, -6583.24, -5239.43, -6978.13, 2984.49, 0.01, 0.79, 0.70
91, 28548.38, 19456.77, 12572.39, -7659.70, -6485.51, -5168.75, -6871.48, 3074.17, 0.00, 0.79, 0.70
92, 28425.90, 19632.16, 12533.07, -7786.83, -6505.92, -5135.16, -6872.96, 3082.89, 0.00, 0.79, 0.70
93, 28316.40, 19592.96, 12406.40, -7892.60, -6634.60, -5223.00, -6993.57, 2989.30, 0.00, 0.79, 0.70
94, 28442.46, 19410.25, 12437.85, -7767.99, -6628.30, -5262.70, -7002.58, 2968.69, 0.00, 0.79, 0.70
95, 28578.04, 19437.93, 12572.19, -7648.88, -6504.31, -5179.66, -6893.70, 3049.18, 0.00, 0.79, 0.70
96, 28487.81, 19642.22, 12571.40, -7747.43, -6484.15, -5110.48, -6858.30, 3089.84, 0.01, 0.78, 0.70
97, 28340.80, 19662.87, 12431.62, -7891.95, -6614.35, -5188.69, -6976.56, 2999.47, 0.01, 0.78, 0.70
98, 28410.83, 19479.75, 12412.79, -7814.91, -6651.41, -5261.85, -7020.30, 2955.10, 0.01, 0.78, 0.70
99, 28560.86, 19453.01, 12549.23, -7670.25, -6528.25, -5181.29, -6905.93, 3043.93, 0.01, 0.78, 0.70
100, 28498.63, 19646.65, 12574.22, -7747.38, -6498.84, -5109.47, -6871.69, 3083.33, 0.01, 0.78, 0.70
101, 28351.40, 19714.60, 12448.22, -7896.33, -6615.54, -5174.74, -6985.19, 2994.15, 0.01, 0.78, 0.70
102, 28384.75, 19546.11, 12404.12, -7856.30, -6673.81, -5252.91, -7045.25, 2932.48, 0.01, 0.78, 0.70
103, 28551.25, 19469.91, 12534.54, -7692.06, -6570.61, -5190.43, -6943.95, 3011.41, 0.01, 0.78, 0.70
104, 28531.84, 19650.18, 12597.42, -7722.15, -6507.38, -5100.60, -6872.36, 3075.85, 0.01, 0.78, 0.70
105, 28366.13, 19765.04, 12477.28, -7891.22, -6617.48, -5151.23, -6972.16, 2991.96, 0.01, 0.78, 0.70
106, 28352.43, 19617.07, 12395.03, -7894.41, -6705.46, -5253.31, -7058.61, 2910.13, 0.01, 0.77, 0.70
107, 28522.48, 19493.92, 12505.76, -7719.82, -6610.42, -5218.04, -6976.07, 2970.95, 0.01, 0.77, 0.70
108, 28559.34, 19637.50, 12605.67, -7695.53, -6514.06, -5105.38, -6881.48, 3058.52, 0.01, 0.77, 0.70
109, 28390.09, 19791.75, 12507.28, -7865.82, -6601.16, -5116.69, -6950.70, 3011.52, 0.01, 0.77, 0.70
110, 28323.15, 19676.22, 12384.86, -7925.88, -6727.70, -5240.05, -7073.70, 2892.90, 0.01, 0.77, 0.70
111, 28485.31, 19515.06, 12466.55, -7761.91, -6661.69, -5237.39, -7015.74, 2928.86, 0.02, 0.78, 0.70
112, 28561.82, 19620.12, 12587.34, -7698.83, -6550.54, -5127.51, -6902.51, 3028.80, 0.02, 0.78, 0.70
113, 28425.92, 19812.56, 12516.78, -7857.91, -6605.59, -5126.46, -6951.46, 2983.87, 0.02, 0.78, 0.70
114, 28331.64, 19751.39, 12385.95, -7945.78, -6732.30, -5239.23, -7071.11, 2871.77, 0.02, 0.78, 0.70
115, 28451.51, 19567.92, 12433.78, -7802.06, -6698.12, -5255.81, -7045.18, 2885.81, 0.02, 0.78, 0.70
116, 28553.53, 19615.20, 12561.63, -7705.00, -6586.14, -5156.59, -6935.46, 2984.49, 0.02, 0.78, 0.70
117, 28427.98, 19813.90, 12533.58, -7832.59, -6601.99, -5111.26, -6937.47, 2993.75, 0.02, 0.76, 0.70
118, 28301.06, 19798.04, 12386.17, -7954.49, -6733.62, -5211.55, -7053.18, 2891.27, 0.02, 0.76, 0.70
119, 28401.64, 19602.08, 12397.13, -7840.32, -6737.13, -5263.84, -7058.55, 2874.88, 0.02, 0.76, 0.70
120, 28544.63, 19596.82, 12535.60, -7705.79, -6608.49, -5175.93, -6941.69, 2961.76, 0.02, 0.76, 0.70
121, 28440.02, 19802.84, 12514.43, -7826.91, -6620.56, -5141.75, -6946.32, 2955.26, 0.02, 0.76, 0.70
122, 28306.09, 19850.94, 12381.75, -7961.76, -6738.09, -5226.55, -7060.49, 2853.89, 0.02, 0.77, 0.70
123, 28387.94, 19662.02, 12372.70, -7869.58, -6751.61, -5280.91, -7083.76, 2831.21, 0.02, 0.77, 0.70
124, 28554.71, 19592.71, 12513.20, -7707.15, -6631.99, -5201.50, -6975.44, 2922.54, 0.02, 0.77, 0.70
125, 28512.51, 19798.01, 12551.20, -7762.11, -6584.42, -5120.72, -6923.88, 2978.26, 0.02, 0.77, 0.70
126, 28331.15, 19905.10, 12407.65, -7941.95, -6708.83, -5189.45, -7037.49, 2893.99, 0.02, 0.77, 0.70
127, 28359.04, 19722.91, 12351.66, -7910.21, -6777.07, -5287.66, -7114.22, 2809.82, 0.02, 0.78, 0.70
128, 28523.64, 19603.75, 12466.66, -7746.35, -6675.08, -5236.41, -7014.33, 2889.32, 0.02, 0.78, 0.70
129, 28533.32, 19780.09, 12544.94, -7745.42, -6592.69, -5124.49, -6928.95, 2975.53, 0.02, 0.78, 0.70
130, 28361.77, 19931.12, 12422.54, -7925.26, -6700.34, -5167.75, -7031.72, 2893.25, 0.02, 0.78, 0.70
131, 28320.73, 19790.03, 12308.84, -7963.01, -6813.30, -5291.78, -7147.89, 2786.23, 0.02, 0.78, 0.70
132, 28495.34, 19623.45, 12411.21, -7784.93, -6727.18, -5265.65, -7071.98, 2837.38, 0.02, 0.78, 0.70
133, 28549.81, 19764.57, 12520.20, -7744.72, -6618.22, -5155.36, -6966.52, 2923.79, 0.02, 0.78, 0.70
134, 28391.05, 19959.48, 12426.94, -7913.86, -6697.63, -5175.39, -7037.83, 2868.42, 0.02, 0.78, 0.70
135, 28307.75, 19863.68, 12296.10, -7986.97, -6830.40, -5297.25, -7166.95, 2754.92, 0.02, 0.78, 0.70
136, 28456.03, 19661.55, 12362.41, -7832.83, -6785.63, -5301.74, -7130.41, 2788.13, 0.02, 0.78, 0.70
137, 28556.01, 19742.56, 12488.03, -7740.50, -6655.10, -5177.58, -7002.49, 2907.13, 0.02, 0.78, 0.70
138, 28423.62, 19955.68, 12441.43, -7876.55, -6689.21, -5138.04, -7018.98, 2913.30, 0.02, 0.78, 0.70
139, 28318.90, 19923.23, 12301.46, -7978.81, -6822.44, -5245.71, -7145.85, 2796.72, 0.02, 0.78, 0.70
140, 28445.07, 19723.36, 12333.45, -7852.93, -6808.21, -5288.91, -7141.85, 2772.38, 0.02, 0.78, 0.70
141, 28557.15, 19753.96, 12456.78, -7747.87, -6693.43, -5200.00, -7028.26, 2859.66, 0.02, 0.78, 0.70
142, 28442.91, 19970.41, 12434.97, -7864.84, -6701.88, -5143.31, -7015.41, 2892.56, 0.02, 0.77, 0.70
143, 28317.33, 19980.38, 12305.44, -7984.31, -6824.30, -5225.08, -7132.58, 2781.97, 0.02, 0.77, 0.70
144, 28412.06, 19773.49, 12310.00, -7879.68, -6828.21, -5270.25, -7138.50, 2763.35, 0.02, 0.77, 0.70
145, 28566.62, 19744.73, 12454.15, -7727.42, -6696.47, -5171.17, -7004.28, 2879.49, 0.02, 0.77, 0.70
146, 28508.80, 19954.14, 12480.81, -7795.24, -6666.09, -5092.38, -6964.47, 2919.83, 0.02, 0.77, 0.70
147, 28337.83, 20029.51, 12327.61, -7968.71, -6811.34, -5182.03, -7106.76, 2800.65, 0.02, 0.77, 0.70
148, 28360.21, 19828.52, 12265.30, -7935.47, -6881.97, -5297.92, -7180.36, 2714.49, 0.02, 0.78, 0.70
149, 28519.13, 19744.81, 12398.31, -7776.48, -6762.56, -5243.03, -7066.97, 2798.66, 0.02, 0.78, 0.70
150, 28490.72, 19933.93, 12450.57, -7812.74, -6694.82, -5152.88, -6996.50, 2861.85, 0.02, 0.78, 0.70
151, 28313.42, 20050.95, 12315.30, -7995.71, -6818.82, -5207.55, -7112.73, 2759.86, 0.02, 0.78, 0.70
152, 28332.11, 19880.67, 12247.82, -7973.52, -6893.48, -5292.47, -7193.48, 2685.03, 0.02, 0.78, 0.70
153, 28508.89, 19762.32, 12375.02, -7794.08, -6785.68, -5224.18, -7086.71, 2774.79, 0.01, 0.78, 0.70
154, 28526.77, 19926.56, 12460.23, -7785.40, -6700.65, -5111.02, -6996.14, 2864.87, 0.01, 0.78, 0.70
155, 28351.26, 20089.41, 12345.65, -7964.98, -6805.82, -5144.79, -7092.12, 2797.63, 0.01, 0.78, 0.70
156, 28318.83, 19957.38, 12254.43, -7992.07, -6906.51, -5252.19, -7191.43, 2706.15, 0.01, 0.78, 0.70
157, 28484.86, 19800.18, 12344.29, -7829.57, -6830.65, -5232.48, -7126.56, 2743.45, 0.01, 0.78, 0.70
158, 28548.12, 19925.26, 12455.17, -7778.76, -6720.59, -5112.31, -7013.55, 2846.41, 0.01, 0.79, 0.70
159, 28372.61, 20119.72, 12354.08, -7959.05, -6805.86, -5126.62, -7084.09, 2794.79, 0.01, 0.79, 0.70
160, 28290.27, 20027.01, 12221.40, -8033.66, -6933.53, -5253.26, -7214.18, 2664.40, 0.01, 0.79, 0.70
161, 28458.87, 19843.83, 12307.23, -7857.17, -6861.81, -5241.13, -7158.32, 2706.77, 0.01, 0.79, 0.70
162, 28539.58, 19926.27, 12422.36, -7783.64, -6756.57, -5129.19, -7048.82, 2803.31, 0.01, 0.79, 0.70
163, 28401.11, 20139.84, 12363.67, -7934.78, -6802.60, -5108.83, -7077.28, 2783.64, 0.01, 0.79, 0.70
164, 28279.61, 20103.63, 12216.66, -8050.49, -6939.70, -5218.22, -7201.87, 2678.10, 0.01, 0.79, 0.70
165, 28412.13, 19894.64, 12251.17, -7913.55, -6915.23, -5244.64, -7191.20, 2680.44, 0.01, 0.79, 0.70
166, 28552.18, 19907.60, 12394.98, -7784.82, -6781.45, -5135.63, -7069.57, 2782.59, 0.01, 0.79, 0.70
167, 28438.62, 20131.34, 12362.28, -7910.37, -6799.96, -5096.56, -7085.06, 2780.96, 0.01, 0.79, 0.70
168, 28292.81, 20157.18, 12215.97, -8052.31, -6929.51, -5192.76, -7198.40, 2677.16, 0.01, 0.78, 0.70
169, 28364.45, 19956.71, 12208.17, -7968.84, -6954.25, -5259.66, -7219.41, 2645.22, 0.01, 0.78, 0.70
170, 28524.92, 19903.71, 12348.42, -7810.68, -6822.67, -5170.34, -7096.70, 2745.78, 0.01, 0.78, 0.70
171, 28465.33, 20114.85, 12365.66, -7887.86, -6793.61, -5095.10, -7070.62, 2778.03, 0.01, 0.78, 0.70
172, 28305.94, 20202.02, 12226.34, -8047.16, -6924.17, -5163.99, -7190.09, 2685.74, 0.01, 0.78, 0.70
173, 28347.62, 20024.84, 12193.17, -7993.90, -6970.10, -5236.45, -7231.17, 2644.30, 0.01, 0.78, 0.70
174, 28502.85, 19915.65, 12312.41, -7838.98, -6862.88, -5187.15, -7125.91, 2711.07, 0.01, 0.78, 0.70
175, 28492.68, 20104.12, 12376.36, -7859.03, -6785.70, -5084.17, -7039.10, 2783.06, 0.01, 0.78, 0.70
176, 28328.73, 20245.23, 12254.54, -8025.26, -6891.24, -5123.31, -7134.54, 2722.13, 0.01, 0.78, 0.70
177, 28315.28, 20096.50, 12166.79, -8030.02, -6986.71, -5232.25, -7234.10, 2628.16, 0.01, 0.78, 0.70
178, 28491.95, 19943.75, 12283.36, -7852.26, -6889.52, -5201.23, -7153.50, 2676.02, 0.01, 0.78, 0.70
179, 28514.92, 20095.36, 12367.76, -7843.61, -6806.31, -5100.94, -7067.67, 2745.51, 0.02, 0.78, 0.70
180, 28346.64, 20271.45, 12259.60, -8016.36, -6898.42, -5125.90, -7152.16, 2674.07, 0.02, 0.78, 0.70
181, 28298.98, 20163.15, 12151.32, -8052.98, -7005.80, -5228.34, -7264.88, 2587.88, 0.02, 0.78, 0.70
182, 28435.91, 19977.14, 12223.41, -7906.97, -6954.77, -5227.54, -7219.77, 2624.18, 0.02, 0.78, 0.70
183, 28496.89, 20071.11, 12325.74, -7852.01, -6847.14, -5126.48, -7112.37, 2705.63, 0.02, 0.78, 0.70
184, 28371.04, 20280.23, 12269.88, -7988.20, -6881.86, -5100.53, -7137.05, 2685.85, 0.02, 0.78, 0.70
185, 28278.73, 20228.89, 12139.10, -8082.77, -7009.95, -5222.06, -7263.47, 2554.25, 0.02, 0.78, 0.70
186, 28389.13, 20014.80, 12161.85, -7965.54, -7003.83, -5263.46, -7260.81, 2546.56, 0.02, 0.78, 0.70
187, 28516.40, 20053.67, 12308.37, -7842.56, -6864.38, -5128.32, -7121.29, 2681.05, 0.02, 0.78, 0.70
188, 28414.72, 20283.71, 12292.23, -7947.86, -6864.20, -5061.06, -7110.89, 2699.24, 0.02, 0.78, 0.70
189, 28282.13, 20297.60, 12148.91, -8073.58, -7003.94, -5175.68, -7250.21, 2567.59, 0.02, 0.78, 0.70
190, 28380.37, 20084.67, 12157.99, -7965.25, -7013.24, -5237.30, -7270.40, 2537.10, 0.02, 0.78, 0.70
191, 28519.51, 20075.80, 12303.72, -7823.58, -6877.97, -5117.34, -7131.23, 2672.91, 0.02, 0.78, 0.70
192, 28430.61, 20299.21, 12301.82, -7919.74, -6861.25, -5045.48, -7105.13, 2709.48, 0.02, 0.78, 0.70
193, 28304.64, 20361.63, 12172.11, -8049.22, -6978.15, -5121.81, -7211.92, 2610.17, 0.02, 0.78, 0.70
194, 28368.79, 20167.60, 12152.75, -7976.76, -7017.98, -5202.68, -7258.26, 2551.99, 0.02, 0.79, 0.70
195, 28516.47, 20105.57, 12283.65, -7827.96, -6894.91, -5132.92, -7147.73, 2632.97, 0.02, 0.79, 0.70
196, 28470.76, 20307.05, 12316.77, -7878.59, -6839.41, -5040.07, -7083.80, 2691.24, 0.02, 0.79, 0.70
197, 28295.72, 20421.22, 12178.10, -8056.04, -6966.50, -5111.87, -7205.08, 2588.53, 0.02, 0.79, 0.70
198, 28313.11, 20236.82, 12113.37, -8033.28, -7049.18, -5219.83, -7294.65, 2498.05, 0.02, 0.79, 0.70
199, 28478.27, 20114.42, 12236.46, -7867.32, -6945.45, -5170.11, -7201.28, 2570.81, 0.02, 0.78, 0.69
200, 28476.55, 20281.10, 12305.35, -7879.57, -6879.06, -5066.31, -7134.54, 2644.30, 0.02, 0.78, 0.69
201, 28325.27, 20441.77, 12196.92, -8040.70, -6976.81, -5101.47, -7225.09, 2569.04, 0.02, 0.78, 0.69
202, 28299.68, 20306.16, 12104.21, -8061.20, -7072.76, -5215.89, -7316.69, 2473.02, 0.02, 0.78, 0.69
203, 28460.32, 20144.58, 12200.90, -7893.79, -6990.46, -5186.16, -7239.01, 2537.01, 0.02, 0.78, 0.69
204, 28507.91, 20273.68, 12306.85, -7853.75, -6883.93, -5058.27, -7126.92, 2648.66, 0.02, 0.78, 0.69
205, 28327.84, 20471.16, 12191.71, -8046.09, -6981.90, -5096.44, -7211.37, 2567.68, 0.02, 0.79, 0.71
206, 28269.30, 20373.30, 12084.56, -8096.72, -7090.96, -5208.72, -7312.73, 2463.59, 0.02, 0.79, 0.71
207, 28426.25, 20178.51, 12166.70, -7937.98, -7028.98, -5208.09, -7256.11, 2492.49, 0.02, 0.79, 0.71
208, 28508.44, 20254.14, 12281.86, -7867.17, -6915.74, -5085.49, -7138.57, 2599.71, 0.02, 0.79, 0.71
209, 28365.55, 20469.86, 12216.84, -8016.61, -6966.39, -5055.25, -7170.98, 2589.74, 0.02, 0.79, 0.71
210, 28263.15, 20428.31, 12074.37, -8114.17, -7099.09, -5167.92, -7301.35, 2467.43, 0.01, 0.77, 0.70
211, 28393.53, 20225.73, 12115.47, -7980.89, -7076.54, -5204.60, -7293.31, 2452.90, 0.01, 0.77, 0.70
212, 28521.65, 20250.48, 12262.12, -7856.15, -6944.40, -5091.73, -7154.90, 2573.89, 0.01, 0.77, 0.70
213, 28419.75, 20476.66, 12249.83, -7963.75, -6945.27, -5018.39, -7127.66, 2614.35, 0.01, 0.77, 0.70
214, 28257.10, 20487.25, 12078.19, -8124.48, -7111.61, -5137.55, -7279.45, 2482.54, 0.01, 0.77, 0.70
215, 28366.42, 20222.99, 12081.41, -8007.15, -7120.21, -5205.16, -7297.80, 2446.93, 0.01, 0.78, 0.69
216, 28541.14, 19949.15, 12244.96, -7825.35, -6967.31, -5096.06, -7143.82, 2566.16, 0.01, 0.78, 0.69
217, 28433.36, 20407.97, 12253.56, -7967.52, -6958.41, -5014.19, -7132.93, 2584.26, 0.01, 0.78, 0.69
218, 28227.41, 20959.61, 12049.11, -8197.52, -7150.41, -5150.67, -7326.61, 2414.41, 0.01, 0.78, 0.69
219, 28315.10, 20503.72, 12014.80, -8076.82, -7183.38, -5235.11, -7358.08, 2381.96, 0.01, 0.78, 0.69
220, 28528.13, 19864.98, 12200.65, -7841.51, -7002.69, -5095.10, -7177.97, 2525.88, 0.01, 0.78, 0.69
221, 28480.46, 20227.75, 12271.89, -7918.71, -6934.58, -4961.68, -7105.08, 2581.13, 0.01, 0.78, 0.69
222, 28256.85, 20928.00, 12085.79, -8174.50, -7117.38, -5052.97, -7276.92, 2430.82, 0.01, 0.78, 0.69
223, 28267.49, 20661.59, 11986.99, -8129.87, -7218.52, -5170.27, -7374.33, 2343.09, 0.01, 0.78, 0.69
224, 28502.59, 19935.72, 12170.70, -7861.20, -7049.67, -5088.93, -7211.16, 2482.59, 0.01, 0.78, 0.69
225, 28513.43, 20122.87, 12286.15, -7876.29, -6940.64, -4991.39, -7106.38, 2587.50, 0.02, 0.78, 0.69
226, 28295.07, 20891.68, 12126.71, -8136.53, -7093.26, -5075.86, -7262.69, 2459.45, 0.02, 0.78, 0.69
227, 28251.40, 20818.91, 11980.94, -8164.51, -7236.13, -5241.91, -7402.61, 2329.03, 0.02, 0.78, 0.69
228, 28483.18, 20053.11, 12143.39, -7885.16, -7084.79, -5178.54, -7249.88, 2458.00, 0.02, 0.78, 0.69
229, 28542.08, 20044.87, 12296.90, -7839.18, -6941.67, -5026.73, -7106.89, 2579.91, 0.02, 0.78, 0.69
230, 28320.40, 20826.62, 12161.32, -8113.06, -7076.43, -5073.53, -7242.95, 2450.06, 0.02, 0.78, 0.69
231, 28226.90, 20945.15, 11987.69, -8200.27, -7246.46, -5247.16, -7415.10, 2285.71, 0.02, 0.79, 0.70
232, 28430.61, 20186.49, 12094.73, -7951.34, -7148.51, -5233.86, -7315.14, 2367.72, 0.02, 0.79, 0.70
233, 28562.76, 19985.45, 12283.89, -7823.42, -6974.26, -5056.01, -7130.00, 2543.20, 0.02, 0.79, 0.70
234, 28379.03, 20740.81, 12215.05, -8052.48, -7041.60, -5040.90, -7190.80, 2491.46, 0.02, 0.79, 0.70
235, 28232.76, 21057.04, 12014.80, -8204.39, -7229.34, -5213.52, -7380.52, 2320.42, 0.02, 0.79, 0.70
236, 28377.64, 20362.44, 12050.79, -8018.44, -7201.89, -5272.31, -7347.38, 2327.06, 0.01, 0.79, 0.70
237, 28538.86, 19961.85, 12258.05, -7842.09, -7011.63, -5117.03, -7151.87, 2492.53, 0.01, 0.79, 0.70
238, 28418.16, 20622.19, 12251.84, -8003.24, -7024.68, -5034.33, -7163.22, 2502.30, 0.01, 0.79, 0.70
239, 28230.12, 21119.96, 12038.94, -8211.36, -7231.39, -5196.02, -7371.16, 2311.59, 0.01, 0.79, 0.70
240, 28352.27, 20543.26, 12039.81, -8044.71, -7225.67, -5266.96, -7367.67, 2299.99, 0.01, 0.79, 0.70
241, 28542.24, 19992.83, 12242.23, -7836.25, -7041.27, -5133.82, -7182.58, 2445.19, 0.02, 0.78, 0.70
242, 28454.62, 20509.18, 12269.05, -7972.89, -7018.36, -5052.43, -7163.67, 2454.82, 0.02, 0.78, 0.70
243, 28260.18, 21142.74, 12076.96, -8196.23, -7200.73, -5172.37, -7347.06, 2303.64, 0.02, 0.78, 0.70
244, 28312.37, 20728.69, 12015.60, -8105.52, -7260.61, -5279.57, -7395.72, 2258.62, 0.02, 0.78, 0.70
245, 28525.38, 20045.51, 12199.20, -7863.43, -7084.94, -5170.34, -7224.08, 2394.90, 0.02, 0.78, 0.70
246, 28500.62, 20384.63, 12286.71, -7919.60, -6997.39, -5038.17, -7134.92, 2469.04, 0.02, 0.78, 0.70
247, 28261.66, 21129.57, 12088.36, -8196.52, -7185.68, -5146.67, -7317.00, 2309.87, 0.02, 0.78, 0.70
248, 28264.45, 20895.10, 11978.21, -8169.65, -7292.32, -5274.56, -7421.16, 2209.27, 0.02, 0.78, 0.70
249, 28514.37, 20133.18, 12161.45, -7884.33, -7112.12, -5163.72, -7244.45, 2350.91, 0.02, 0.78, 0.70
250, 28551.29, 20286.38, 12292.74, -7870.59, -6982.13, -4994.21, -7107.61, 2477.33, 0.02, 0.78, 0.70
251, 28316.35, 21085.54, 12124.77, -8145.13, -7141.02, -5053.13, -7256.54, 2357.13, 0.01, 0.78, 0.70
252, 28242.39, 21053.46, 11961.16, -8205.15, -7303.79, -5223.80, -7415.66, 2215.97, 0.01, 0.78, 0.70
253, 28450.55, 20260.78, 12081.01, -7954.81, -7188.34, -5190.30, -7296.53, 2309.05, 0.01, 0.78, 0.70
254, 28540.63, 20196.72, 12254.70, -7875.57, -7023.86, -5023.08, -7135.75, 2443.63, 0.01, 0.78, 0.70
255, 28321.87, 20990.08, 12133.51, -8141.89, -7147.31, -5048.41, -7256.34, 2336.36, 0.01, 0.78, 0.70
0, 28216.91, 21164.44, 11949.35, -8243.30, -7326.63, -5197.79, -7430.32, 2186.22, 0.02, 0.78, 0.69
1, 28405.40, 20409.24, 12029.40, -8013.08, -7246.39, -5183.08, -7348.56, 2254.31, 0.02, 0.78, 0.69
2, 28541.46, 20141.25, 12209.44, -7885.61, -7070.42, -5014.03, -7173.03, 2405.58, 0.02, 0.78, 0.69
3, 28374.76, 20872.30, 12140.75, -8093.70, -7124.39, -4956.28, -7221.20, 2380.37, 0.02, 0.78, 0.69
4, 28220.51, 21240.04, 11963.79, -8247.15, -7313.36, -5060.05, -7407.23, 2231.73, 0.02, 0.78, 0.69
5, 28371.16, 20568.66, 11989.50, -8056.71, -7287.94, -5063.72, -7389.87, 2241.08, 0.02, 0.78, 0.69
6, 28543.33, 20125.60, 12173.72, -7878.14, -7107.30, -4862.00, -7208.57, 2394.12, 0.02, 0.78, 0.69
7, 28418.10, 20749.57, 12164.40, -8046.00, -7118.36, -4731.31, -7206.43, 2405.29, 0.02, 0.78, 0.69
8, 28224.60, 21289.77, 11956.04, -8256.42, -7314.85, -4851.98, -7398.36, 2225.79, 0.02, 0.78, 0.69
9, 28331.46, 20754.73, 11932.84, -8113.53, -7332.40, -4907.77, -7416.67, 2194.25, 0.02, 0.78, 0.69
10, 28523.55, 20152.31, 12118.78, -7898.26, -7157.77, -4752.96, -7244.56, 2347.38, 0.02, 0.78, 0.69
11, 28457.21, 20614.41, 12169.52, -8003.40, -7112.12, -4637.50, -7201.89, 2391.73, 0.02, 0.79, 0.70
12, 28242.84, 21288.76, 11971.15, -8249.09, -7295.99, -4755.04, -7381.80, 2230.50, 0.02, 0.79, 0.70
13, 28284.92, 20919.31, 11896.63, -8177.52, -7365.86, -4868.81, -7452.56, 2149.25, 0.02, 0.79, 0.70
14, 28517.05, 20208.35, 12074.55, -7918.93, -7188.46, -4734.93, -7278.20, 2297.04, 0.02, 0.79, 0.70
15, 28501.83, 20492.48, 12169.09, -7963.57, -7101.84, -4597.78, -7187.52, 2379.75, 0.02, 0.79, 0.70
16, 28271.42, 21256.55, 12015.56, -8233.24, -7279.31, -4695.70, -7360.56, 2227.55, 0.02, 0.79, 0.71
17, 28259.58, 21085.43, 11887.51, -8228.59, -7399.52, -4837.48, -7481.89, 2103.21, 0.02, 0.79, 0.71
18, 28477.26, 20315.63, 12038.11, -7972.35, -7249.83, -4745.86, -7332.13, 2229.85, 0.02, 0.79, 0.71
19, 28515.55, 20390.62, 12167.60, -7951.72, -7123.72, -4585.28, -7203.90, 2357.24, 0.02, 0.79, 0.71
20, 28303.97, 21183.60, 12032.01, -8209.48, -7253.07, -4632.22, -7321.34, 2254.42, 0.02, 0.79, 0.71
21, 28234.23, 21219.02, 11877.92, -8264.71, -7396.91, -4774.02, -7460.65, 2122.16, 0.02, 0.79, 0.70
22, 28429.25, 20440.33, 11979.44, -8031.07, -7301.15, -4754.42, -7368.30, 2179.83, 0.02, 0.79, 0.70
23, 28525.61, 20311.88, 12143.55, -7944.75, -7144.60, -4598.40, -7218.56, 2312.49, 0.02, 0.79, 0.70
24, 28339.31, 21081.88, 12053.13, -8176.51, -7225.85, -4595.83, -7295.65, 2264.48, 0.02, 0.79, 0.70
25, 28221.83, 21325.46, 11886.61, -8289.12, -7398.23, -4737.21, -7459.43, 2120.80, 0.02, 0.79, 0.70
26, 28378.02, 20605.38, 11937.73, -8088.16, -7355.76, -4757.93, -7426.10, 2141.77, 0.02, 0.78, 0.70
27, 28538.77, 20279.38, 12137.51, -7927.78, -7166.15, -4594.74, -7247.11, 2288.28, 0.02, 0.78, 0.70
28, 28387.29, 20960.93, 12095.47, -8125.24, -7201.53, -4553.65, -7270.96, 2276.30, 0.02, 0.78, 0.70
29, 28210.20, 21388.07, 11884.27, -8313.53, -7400.64, -4709.87, -7463.34, 2121.65, 0.02, 0.78, 0.70
30, 28323.44, 20947.85, 11893.43, -8172.49, -7400.98, -4763.80, -7473.84, 2106.05, 0.02, 0.78, 0.70
31, 28479.88, 20748.97, 12052.24, -8023.54, -7256.83, -4662.48, -7336.42, 2214.30, 0.01, 0.77, 0.70
32, 28419.55, 20936.34, 12072.62, -8101.75, -7225.36, -4581.01, -7291.12, 2261.39, 0.01, 0.77, 0.70
33, 28265.77, 20971.93, 11931.23, -8253.58, -7338.86, -4633.49, -7380.93, 2185.13, 0.01, 0.77, 0.70
34, 28335.53, 20755.18, 11895.06, -8178.66, -7365.84, -4694.45, -7405.69, 2154.35, 0.01, 0.77, 0.70
35, 28503.41, 20690.76, 12047.66, -8008.99, -7242.17, -4602.13, -7290.18, 2254.91, 0.01, 0.77, 0.70
36, 28462.35, 20905.96, 12091.87, -8066.79, -7205.04, -4532.96, -7250.84, 2289.65, 0.01, 0.77, 0.70
37, 28294.04, 21013.81, 11939.25, -8248.84, -7331.75, -4626.19, -7381.57, 2163.60, 0.02, 0.78, 0.70
38, 28285.75, 20827.15, 11857.85, -8244.13, -7415.39, -4726.77, -7469.28, 2086.36, 0.02, 0.78, 0.70
39, 28452.79, 20698.54, 11983.22, -8071.75, -7309.00, -4643.24, -7357.88, 2199.66, 0.02, 0.78, 0.70
40, 28464.25, 20879.68, 12059.08, -8075.13, -7237.87, -4539.17, -7277.86, 2281.29, 0.02, 0.78, 0.70
41, 28294.42, 21102.57, 11953.76, -8255.57, -7337.09, -4579.22, -7370.85, 2208.93, 0.02, 0.78, 0.70
42, 28267.09, 21083.35, 11843.03, -8279.44, -7438.64, -4689.78, -7482.11, 2104.24, 0.02, 0.78, 0.71
43, 28479.81, 20428.60, 11970.39, -8035.56, -7313.00, -4633.96, -7361.08, 2194.63, 0.02, 0.78, 0.71
44, 28529.52, 20469.26, 12094.04, -8009.01, -7194.11, -4502.87, -7243.10, 2297.45, 0.02, 0.78, 0.71
45, 28323.41, 21270.79, 11969.20, -8260.18, -7314.54, -4551.80, -7365.39, 2192.84, 0.02, 0.78, 0.71
46, 28241.79, 21388.38, 11809.19, -8337.71, -7468.81, -4706.45, -7512.96, 2054.17, 0.02, 0.78, 0.71
47, 28418.32, 20626.61, 11898.82, -8116.25, -7392.37, -4693.53, -7434.68, 2121.65, 0.02, 0.78, 0.71
48, 28538.28, 20444.67, 12079.78, -8001.37, -7217.20, -4522.32, -7261.72, 2289.96, 0.02, 0.78, 0.71
49, 28369.75, 21209.99, 12004.32, -8222.33, -7284.46, -4518.34, -7327.44, 2237.03, 0.02, 0.78, 0.71
50, 28232.80, 21512.12, 11812.74, -8363.08, -7473.15, -4677.91, -7508.13, 2076.90, 0.02, 0.78, 0.71
51, 28393.17, 20803.39, 11861.65, -8160.49, -7433.54, -4698.83, -7473.44, 2103.72, 0.02, 0.78, 0.71
52, 28566.40, 20427.77, 12077.41, -7979.66, -7227.28, -4520.60, -7265.34, 2274.65, 0.02, 0.78, 0.71
53, 28418.81, 21102.64, 12047.99, -8168.24, -7254.26, -4480.32, -7287.43, 2251.87, 0.02, 0.78, 0.71
54, 28233.29, 21577.84, 11837.19, -8365.56, -7456.85, -4637.29, -7479.88, 2083.38, 0.02, 0.78, 0.71
55, 28352.31, 20983.44, 11841.33, -8207.00, -7462.55, -4699.41, -7483.83, 2059.06, 0.02, 0.78, 0.71
56, 28542.13, 20440.76, 12040.33, -7996.98, -7275.94, -4553.32, -7305.44, 2209.72, 0.02, 0.78, 0.71
57, 28450.33, 20972.22, 12056.26, -8130.40, -7258.97, -4466.93, -7288.50, 2234.37, 0.02, 0.77, 0.70
58, 28258.01, 21595.67, 11860.89, -8351.64, -7443.44, -4595.09, -7465.97, 2077.66, 0.02, 0.77, 0.70
59, 28319.19, 21151.41, 11807.33, -8256.44, -7490.40, -4685.55, -7506.25, 2030.14, 0.02, 0.77, 0.70
60, 28515.77, 20469.53, 11980.04, -8030.47, -7320.11, -4568.03, -7326.12, 2175.92, 0.02, 0.77, 0.70
61, 28509.52, 20833.43, 12069.67, -8074.41, -7221.25, -4434.23, -7223.35, 2256.86, 0.02, 0.77, 0.70
62, 28274.73, 21571.94, 11866.85, -8351.28, -7416.15, -4573.79, -7429.36, 2057.43, 0.02, 0.77, 0.70
63, 28275.92, 21312.88, 11764.13, -8321.49, -7521.52, -4713.49, -7539.60, 1948.36, 0.02, 0.77, 0.71
64, 28494.07, 20556.18, 11938.76, -8061.65, -7367.05, -4598.29, -7368.01, 2115.79, 0.02, 0.77, 0.71
65, 28506.50, 20717.21, 12055.90, -8068.91, -7254.84, -4449.65, -7253.74, 2230.84, 0.02, 0.77, 0.71
66, 28262.86, 21503.07, 11874.01, -8353.67, -7426.12, -4554.10, -7427.75, 2069.84, 0.02, 0.77, 0.71
67, 28217.31, 21439.81, 11726.40, -8385.86, -7568.05, -4701.78, -7571.41, 1926.70, 0.02, 0.77, 0.71
68, 28452.16, 20644.81, 11878.75, -8106.69, -7422.08, -4608.08, -7418.63, 2054.42, 0.02, 0.78, 0.70
69, 28553.59, 20612.49, 12054.68, -8021.79, -7254.82, -4423.90, -7247.35, 2207.41, 0.02, 0.78, 0.70
70, 28343.33, 21409.35, 11923.00, -8289.46, -7383.83, -4472.18, -7380.32, 2096.68, 0.02, 0.78, 0.70
71, 28229.63, 21566.19, 11736.61, -8396.54, -7570.36, -4639.17, -7569.98, 1939.44, 0.02, 0.78, 0.70
72, 28417.69, 20805.96, 11826.17, -8166.81, -7486.83, -4627.17, -7489.33, 2004.82, 0.02, 0.78, 0.70
73, 28548.50, 20562.73, 12015.11, -8035.25, -7293.98, -4457.79, -7283.85, 2169.10, 0.02, 0.78, 0.69
74, 28363.89, 21296.72, 11933.01, -8260.11, -7361.08, -4462.21, -7337.25, 2113.36, 0.02, 0.78, 0.69
75, 28221.67, 21647.08, 11743.72, -8411.12, -7545.05, -4621.11, -7520.22, 1948.24, 0.02, 0.78, 0.69
76, 28370.60, 20967.14, 11781.20, -8222.22, -7518.72, -4648.58, -7492.33, 1970.37, 0.02, 0.78, 0.69
77, 28536.76, 20535.87, 11974.30, -8042.47, -7337.21, -4482.06, -7300.55, 2137.45, 0.02, 0.78, 0.69
78, 28404.33, 21169.63, 11950.72, -8218.69, -7356.88, -4437.92, -7321.25, 2119.19, 0.02, 0.78, 0.69
79, 28225.27, 21695.05, 11751.47, -8417.13, -7548.50, -4585.15, -7511.84, 1949.83, 0.02, 0.78, 0.69
80, 28322.16, 21136.05, 11738.38, -8279.29, -7566.00, -4654.95, -7529.12, 1924.75, 0.02, 0.78, 0.69
81, 28530.19, 20546.68, 11943.45, -8049.67, -7362.71, -4498.40, -7332.87, 2105.00, 0.02, 0.78, 0.69
82, 28455.29, 21040.72, 11978.08, -8161.18, -7328.00, -4403.43, -7295.36, 2151.15, 0.02, 0.78, 0.69
83, 28230.39, 21703.72, 11768.28, -8410.27, -7532.90, -4544.40, -7493.24, 1977.53, 0.01, 0.78, 0.70
84, 28280.57, 21307.49, 11701.12, -8327.14, -7597.02, -4654.55, -7560.34, 1907.23, 0.01, 0.78, 0.70
85, 28520.96, 20598.16, 11901.66, -8055.28, -7396.33, -4518.65, -7362.75, 2066.06, 0.01, 0.78, 0.70
86, 28487.48, 20912.74, 11991.29, -8113.24, -7322.25, -4398.91, -7289.86, 2138.53, 0.01, 0.78, 0.70
87, 28245.65, 21670.53, 11790.72, -8389.64, -7513.40, -4519.01, -7477.75, 1981.15, 0.01, 0.78, 0.70
88, 28241.32, 21461.65, 11680.66, -8373.43, -7630.24, -4653.28, -7591.86, 1870.66, 0.02, 0.79, 0.71
89, 28455.00, 20680.46, 11833.75, -8120.43, -7485.51, -4567.94, -7441.54, 1992.39, 0.02, 0.79, 0.71
90, 28500.78, 20788.02, 11966.39, -8092.69, -7351.76, -4418.14, -7310.94, 2107.39, 0.02, 0.79, 0.71
91, 28283.70, 21594.60, 11821.79, -8350.48, -7490.11, -4483.22, -7447.76, 1984.48, 0.02, 0.79, 0.71
92, 28224.62, 21597.86, 11670.49, -8400.46, -7643.31, -4635.53, -7594.76, 1854.21, 0.02, 0.79, 0.71
93, 28442.50, 20801.38, 11809.99, -8139.90, -7518.39, -4573.75, -7475.14, 1958.28, 0.02, 0.79, 0.71
94, 28529.01, 20703.55, 11973.87, -8060.24, -7366.08, -4413.66, -7321.25, 2088.19, 0.03, 0.80, 0.71
95, 28334.93, 21494.64, 11867.08, -8301.24, -7465.01, -4443.28, -7410.83, 1993.35, 0.03, 0.80, 0.71
96, 28205.80, 21704.53, 11682.27, -8425.31, -7647.02, -4613.27, -7579.97, 1830.00, 0.03, 0.80, 0.71
97, 28382.04, 20953.75, 11760.79, -8202.55, -7571.25, -4601.29, -7496.57, 1891.72, 0.03, 0.80, 0.71
98, 28522.01, 20659.13, 11937.82, -8068.47, -7398.56, -4441.02, -7328.40, 2037.07, 0.03, 0.80, 0.71
99, 28345.72, 21367.93, 11865.49, -8293.79, -7469.39, -4437.27, -7401.09, 1979.07, 0.02, 0.79, 0.70
100, 28173.12, 21767.20, 11660.41, -8474.40, -7670.05, -4600.95, -7589.96, 1816.10, 0.02, 0.79, 0.70
101, 28325.69, 21130.62, 11703.15, -8276.27, -7631.04, -4611.66, -7542.01, 1861.54, 0.02, 0.79, 0.70
102, 28509.98, 20654.64, 11899.71, -8080.04, -7440.02, -4443.12, -7351.18, 2038.79, 0.02, 0.79, 0.70
103, 28402.54, 21232.88, 11891.98, -8232.97, -7433.68, -4382.64, -7351.22, 2036.98, 0.02, 0.79, 0.70
104, 28227.73, 21801.20, 11694.10, -8440.85, -7612.40, -4529.16, -7532.05, 1863.46, 0.02, 0.78, 0.70
105, 28307.32, 21359.46, 11659.21, -8336.51, -7648.25, -4614.90, -7567.09, 1814.63, 0.02, 0.78, 0.70
106, 28471.12, 21010.28, 11829.48, -8159.66, -7501.18, -4494.18, -7419.01, 1944.80, 0.02, 0.78, 0.70
107, 28420.55, 21264.18, 11852.30, -8226.20, -7470.22, -4420.35, -7378.74, 1986.91, 0.02, 0.78, 0.70
108, 28242.19, 21374.93, 11696.04, -8406.25, -7609.81, -4508.17, -7505.36, 1880.07, 0.02, 0.78, 0.70
109, 28260.94, 21193.95, 11636.97, -8380.03, -7678.25, -4594.49, -7573.35, 1818.22, 0.02, 0.78, 0.69
110, 28448.58, 21109.05, 11779.30, -8197.75, -7555.38, -4516.71, -7461.24, 1917.31, 0.02, 0.78, 0.69
111, 28448.09, 21289.50, 11845.58, -8207.43, -7475.76, -4423.41, -7380.81, 1988.10, 0.02, 0.78, 0.69
112, 28286.36, 21413.44, 11720.81, -8373.99, -7575.88, -4479.69, -7474.07, 1910.25, 0.02, 0.78, 0.69
113, 28279.27, 21268.38, 11656.86, -8375.00, -7651.65, -4560.29, -7549.12, 1834.61, 0.02, 0.78, 0.69
114, 28428.54, 21132.93, 11750.98, -8225.46, -7574.36, -4525.13, -7476.19, 1887.63, 0.01, 0.78, 0.69
115, 28459.80, 21269.88, 11836.12, -8202.24, -7484.50, -4425.02, -7378.60, 1971.45, 0.01, 0.78, 0.69
116, 28313.71, 21428.62, 11747.14, -8352.38, -7553.26, -4451.10, -7436.96, 1924.02, 0.01, 0.78, 0.69
117, 28250.21, 21318.85, 11635.94, -8410.27, -7664.35, -4558.17, -7550.71, 1822.90, 0.01, 0.78, 0.69
118, 28398.27, 21154.21, 11710.95, -8258.97, -7605.61, -4542.63, -7505.27, 1859.98, 0.01, 0.78, 0.69
119, 28470.04, 21248.86, 11814.30, -8193.86, -7500.28, -4438.97, -7398.81, 1963.62, 0.01, 0.78, 0.69
120, 28343.31, 21431.97, 11753.69, -8326.78, -7536.23, -4425.24, -7426.17, 1953.05, 0.00, 0.77, 0.68
121, 28253.30, 21366.57, 11628.11, -8415.90, -7648.25, -4535.03, -7544.03, 1835.88, 0.00, 0.77, 0.68
122, 28379.99, 21190.71, 11679.19, -8282.82, -7621.21, -4545.25, -7523.69, 1838.52, 0.00, 0.77, 0.68
123, 28483.81, 21243.19, 11799.24, -8183.24, -7511.44, -4438.25, -7408.35, 1944.98, 0.00, 0.77, 0.68
124, 28378.42, 21441.47, 11760.12, -8300.92, -7528.42, -4399.83, -7416.69, 1959.38, 0.00, 0.77, 0.68
125, 28257.32, 21425.13, 11630.10, -8414.90, -7646.46, -4485.26, -7537.57, 1857.68, 0.01, 0.78, 0.68
126, 28333.27, 21236.62, 11633.88, -8327.99, -7659.63, -4536.20, -7564.88, 1814.72, 0.01, 0.78, 0.68
127, 28458.98, 21235.74, 11745.01, -8210.22, -7551.09, -4464.58, -7463.56, 1886.82, 0.01, 0.78, 0.68
128, 28402.23, 21434.00, 11758.27, -8274.75, -7524.67, -4402.24, -7426.10, 1929.36, 0.01, 0.78, 0.68
129, 28268.61, 21476.05, 11640.92, -8399.70, -7626.91, -4460.31, -7519.37, 1856.09, 0.01, 0.78, 0.68
130, 28314.72, 21300.85, 11609.61, -8349.25, -7669.31, -4537.49, -7572.44, 1789.77, 0.01, 0.79, 0.69
131, 28465.82, 21250.79, 11737.39, -8203.11, -7555.60, -4467.67, -7465.66, 1870.98, 0.01, 0.79, 0.69
132, 28421.99, 21429.89, 11764.64, -8251.50, -7517.70, -4392.48, -7418.34, 1933.22, 0.01, 0.79, 0.69
133, 28248.56, 21504.30, 11622.50, -8428.08, -7649.24, -4475.20, -7547.74, 1826.12, 0.01, 0.79, 0.69
134, 28270.29, 21332.68, 11570.54, -8408.70, -7713.16, -4556.47, -7617.94, 1745.02, 0.01, 0.79, 0.69
135, 28434.37, 21239.59, 11690.61, -8248.31, -7610.21, -4497.26, -7523.75, 1804.26, 0.01, 0.80, 0.70
136, 28454.62, 21403.22, 11763.43, -8239.61, -7521.54, -4391.38, -7425.92, 1891.09, 0.01, 0.80, 0.70
137, 28287.12, 21525.18, 11640.45, -8407.63, -7613.25, -4422.20, -7495.34, 1848.47, 0.01, 0.80, 0.70
138, 28260.05, 21388.05, 11554.58, -8424.35, -7698.23, -4504.66, -7585.73, 1770.62, 0.01, 0.80, 0.70
139, 28407.86, 21257.27, 11638.13, -8274.88, -7633.05, -4478.93, -7529.48, 1805.24, 0.01, 0.80, 0.70
140, 28481.78, 21389.37, 11750.71, -8217.31, -7521.72, -4367.06, -7420.29, 1896.70, 0.02, 0.79, 0.70
141, 28322.14, 21549.65, 11655.23, -8379.20, -7595.32, -4394.67, -7485.00, 1839.66, 0.02, 0.79, 0.70
142, 28245.16, 21452.04, 11535.53, -8447.93, -7713.81, -4501.95, -7597.16, 1733.91, 0.02, 0.79, 0.70
143, 28372.72, 21293.81, 11595.24, -8316.21, -7673.55, -4499.83, -7566.13, 1747.68, 0.02, 0.79, 0.70
144, 28454.44, 21373.59, 11707.82, -8238.54, -7565.28, -4398.31, -7455.63, 1854.28, 0.02, 0.79, 0.70
145, 28358.75, 21553.47, 11680.87, -8341.69, -7575.39, -4359.17, -7451.87, 1870.57, 0.01, 0.78, 0.70
146, 28268.88, 21506.85, 11565.51, -8432.42, -7690.18, -4449.87, -7563.03, 1769.54, 0.01, 0.78, 0.70
147, 28363.09, 21325.40, 11584.91, -8337.49, -7692.60, -4489.33, -7575.48, 1747.33, 0.01, 0.78, 0.70
148, 28474.02, 21360.49, 11705.50, -8234.52, -7577.71, -4400.32, -7457.53, 1829.00, 0.01, 0.78, 0.70
149, 28372.05, 21547.95, 11676.24, -8344.40, -7586.11, -4366.88, -7454.24, 1833.07, 0.01, 0.78, 0.70
150, 28246.19, 21548.91, 11548.05, -8466.82, -7704.91, -4446.37, -7566.53, 1737.47, 0.01, 0.78, 0.70
151, 28316.04, 21368.58, 11538.57, -8388.52, -7728.36, -4497.08, -7590.52, 1703.29, 0.01, 0.78, 0.70
152, 28470.00, 21357.31, 11671.03, -8238.52, -7607.01, -4400.30, -7467.14, 1805.64, 0.01, 0.78, 0.70
153, 28429.72, 21553.29, 11698.52, -8290.24, -7561.53, -4331.79, -7411.77, 1858.61, 0.01, 0.78, 0.70
154, 28259.27, 21596.43, 11548.16, -8459.93, -7701.11, -4432.22, -7532.72, 1747.48, 0.01, 0.78, 0.70
155, 28287.12, 21416.90, 11499.93, -8423.43, -7770.96, -4503.59, -7594.18, 1691.76, 0.01, 0.78, 0.70
156, 28458.71, 21358.54, 11634.33, -8251.35, -7654.73, -4425.85, -7484.24, 1784.97, 0.01, 0.77, 0.70
157, 28460.12, 21541.81, 11702.81, -8260.78, -7572.79, -4333.78, -7398.29, 1858.61, 0.01, 0.77, 0.70
158, 28288.05, 21639.35, 11565.35, -8439.95, -7693.43, -4406.11, -7510.19, 1766.88, 0.01, 0.77, 0.70
159, 28279.52, 21478.19, 11490.83, -8441.07, -7776.86, -4498.11, -7597.11, 1685.95, 0.01, 0.77, 0.70
160, 28444.79, 21375.96, 11607.77, -8274.10, -7673.85, -4448.38, -7508.00, 1744.75, 0.01, 0.77, 0.70
161, 28472.41, 21524.33, 11686.56, -8263.91, -7592.82, -4367.69, -7428.85, 1808.08, 0.01, 0.77, 0.70
162, 28310.99, 21654.39, 11585.38, -8427.26, -7681.27, -4412.84, -7503.52, 1745.81, 0.01, 0.77, 0.70
163, 28258.66, 21527.21, 11480.30, -8467.89, -7780.91, -4520.10, -7605.67, 1652.98, 0.01, 0.77, 0.70
164, 28403.61, 21384.65, 11560.12, -8321.38, -7706.64, -4506.47, -7544.92, 1689.86, 0.01, 0.77, 0.70
165, 28472.28, 21500.72, 11663.97, -8261.85, -7605.65, -4405.35, -7444.85, 1785.10, 0.01, 0.77, 0.70
166, 28327.53, 21673.30, 11582.70, -8414.13, -7672.15, -4412.99, -7500.24, 1756.47, 0.01, 0.77, 0.70
167, 28225.16, 21580.29, 11436.99, -8512.93, -7815.94, -4542.39, -7640.63, 1629.44, 0.01, 0.77, 0.70
168, 28370.87, 21405.77, 11506.66, -8363.93, -7760.19, -4547.95, -7595.15, 1637.00, 0.01, 0.77, 0.70
169, 28486.31, 21480.27, 11640.48, -8257.32, -7627.24, -4439.21, -7469.60, 1739.84, 0.01, 0.77, 0.70
170, 28379.25, 21670.80, 11603.55, -8367.91, -7644.32, -4405.04, -7478.49, 1753.58, 0.01, 0.77, 0.70
171, 28254.26, 21637.07, 11466.76, -8482.42, -7769.62, -4504.81, -7587.10, 1658.59, 0.02, 0.78, 0.70
172, 28345.27, 21456.38, 11476.73, -8389.57, -7775.08, -4557.99, -7605.94, 1627.25, 0.02, 0.78, 0.70
173, 28481.62, 21477.48, 11607.80, -8262.75, -7646.67, -4469.70, -7490.94, 1718.31, 0.02, 0.78, 0.70
174, 28403.61, 21673.61, 11608.42, -8345.78, -7633.28, -4415.50, -7461.95, 1753.29, 0.02, 0.78, 0.70
175, 28244.78, 21686.09, 11461.04, -8502.85, -7771.72, -4525.00, -7599.84, 1629.91, 0.02, 0.78, 0.70
176, 28303.14, 21495.78, 11439.04, -8441.40, -7810.03, -4599.03, -7646.69, 1571.95, 0.02, 0.78, 0.70
177, 28471.00, 21470.84, 11588.51, -8277.52, -7670.67, -4498.65, -7507.93, 1691.22, 0.02, 0.78, 0.70
178, 28437.07, 21666.46, 11630.93, -8318.16, -7609.81, -4417.58, -7439.06, 1763.64, 0.02, 0.78, 0.70
179, 28282.78, 21732.96, 11497.27, -8474.42, -7728.41, -4500.17, -7551.07, 1662.81, 0.02, 0.78, 0.70
180, 28286.09, 21562.08, 11432.00, -8465.75, -7806.21, -4599.25, -7633.21, 1576.89, 0.02, 0.78, 0.70
181, 28457.53, 21484.12, 11561.17, -8294.69, -7694.12, -4534.25, -7532.29, 1657.34, 0.02, 0.78, 0.70
182, 28452.50, 21658.10, 11614.82, -8313.28, -7633.46, -4461.41, -7470.98, 1713.26, 0.01, 0.78, 0.70
183, 28295.83, 21762.75, 11497.89, -8473.52, -7737.30, -4529.04, -7562.96, 1622.00, 0.01, 0.78, 0.70
184, 28267.87, 21607.47, 11411.44, -8494.87, -7826.55, -4636.76, -7650.26, 1526.29, 0.01, 0.78, 0.70
185, 28415.37, 21482.62, 11506.97, -8344.38, -7745.37, -4594.71, -7570.25, 1602.31, 0.01, 0.78, 0.70
186, 28470.06, 21616.51, 11601.52, -8302.67, -7638.53, -4493.64, -7463.87, 1706.42, 0.01, 0.78, 0.70
187, 28351.60, 21764.25, 11540.34, -8423.63, -7676.01, -4497.42, -7493.35, 1689.03, 0.01, 0.78, 0.70
188, 28263.69, 21653.65, 11410.68, -8505.91, -7803.60, -4633.65, -7617.12, 1563.42, 0.01, 0.78, 0.70
189, 28388.28, 21497.10, 11475.07, -8378.98, -7763.97, -4642.86, -7586.29, 1577.68, 0.01, 0.78, 0.70
190, 28449.12, 21591.29, 11562.80, -8326.85, -7674.61, -4563.71, -7500.53, 1649.25, 0.01, 0.78, 0.70
191, 28321.18, 21760.67, 11496.91, -8458.50, -7722.66, -4571.20, -7540.07, 1623.83, 0.01, 0.78, 0.70
192, 28238.84, 21693.11, 11384.68, -8539.75, -7840.97, -4668.97, -7643.98, 1532.46, 0.01, 0.77, 0.70
193, 28363.38, 21517.33, 11429.43, -8412.84, -7815.15, -4689.33, -7619.08, 1536.03, 0.01, 0.77, 0.70
194, 28495.72, 21579.13, 11571.25, -8286.93, -7676.86, -4568.47, -7483.81, 1660.82, 0.01, 0.77, 0.70
195, 28385.89, 21775.83, 11538.95, -8402.53, -7690.27, -4541.58, -7481.29, 1686.06, 0.01, 0.77, 0.70
196, 28244.13, 21753.81, 11394.70, -8541.99, -7833.26, -4654.35, -7616.18, 1577.43, 0.01, 0.77, 0.70
197, 28312.66, 21558.44, 11382.31, -8472.07, -7867.75, -4727.13, -7660.43, 1524.48, 0.02, 0.77, 0.70
198, 28472.79, 21555.15, 11525.03, -8317.80, -7724.96, -4630.34, -7522.75, 1626.76, 0.02, 0.77, 0.70
199, 28397.42, 21754.68, 11524.34, -8400.10, -7705.61, -4580.30, -7490.67, 1664.04, 0.02, 0.77, 0.70
200, 28249.16, 21780.30, 11385.20, -8548.40, -7835.98, -4680.83, -7611.44, 1565.36, 0.02, 0.77, 0.70
201, 28316.17, 21595.96, 11370.76, -8484.81, -7863.50, -4756.27, -7650.64, 1513.39, 0.02, 0.77, 0.70
202, 28471.85, 21565.39, 11498.65, -8342.99, -7758.45, -4694.85, -7555.94, 1575.93, 0.02, 0.78, 0.70
203, 28425.36, 21757.34, 11534.01, -8378.69, -7711.91, -4624.46, -7502.39, 1628.62, 0.02, 0.78, 0.70
204, 28271.22, 21828.96, 11421.43, -8519.32, -7805.99, -4680.97, -7582.27, 1565.31, 0.02, 0.78, 0.70
205, 28293.60, 21662.19, 11357.26, -8510.02, -7880.15, -4777.62, -7650.20, 1488.07, 0.02, 0.78, 0.70
206, 28478.38, 21585.15, 11492.13, -8331.10, -7772.42, -4703.68, -7538.84, 1580.89, 0.02, 0.78, 0.70
207, 28497.58, 21758.86, 11579.23, -8311.47, -7676.30, -4597.17, -7441.36, 1676.07, 0.02, 0.78, 0.70
208, 28342.97, 21886.92, 11462.80, -8477.95, -7774.18, -4659.02, -7531.17, 1585.54, 0.02, 0.78, 0.70
209, 28285.01, 21745.21, 11361.30, -8518.85, -7886.75, -4772.37, -7637.41, 1483.42, 0.02, 0.78, 0.70
210, 28431.04, 21609.87, 11451.94, -8365.41, -7813.88, -4735.95, -7565.31, 1545.91, 0.02, 0.78, 0.70
211, 28513.65, 21744.07, 11563.74, -8306.11, -7695.77, -4620.19, -7448.65, 1651.70, 0.02, 0.78, 0.70
212, 28352.79, 21901.33, 11461.08, -8473.88, -7779.35, -4655.29, -7524.51, 1594.60, 0.02, 0.78, 0.70
213, 28281.62, 21792.06, 11344.11, -8539.46, -7901.90, -4769.48, -7644.90, 1489.48, 0.02, 0.77, 0.70
214, 28419.13, 21631.82, 11410.59, -8404.30, -7862.00, -4768.95, -7608.04, 1511.07, 0.02, 0.77, 0.70
215, 28522.01, 21723.41, 11540.00, -8310.27, -7739.22, -4656.92, -7487.92, 1625.66, 0.02, 0.77, 0.70
216, 28407.77, 21910.47, 11489.67, -8435.66, -7770.16, -4656.70, -7514.03, 1605.55, 0.02, 0.77, 0.70
217, 28317.71, 21856.68, 11380.86, -8516.17, -7871.50, -4747.67, -7611.80, 1518.96, 0.02, 0.77, 0.70
218, 28419.28, 21674.73, 11410.14, -8411.10, -7858.76, -4777.33, -7605.76, 1512.72, 0.02, 0.78, 0.70
219, 28534.10, 21711.23, 11531.33, -8305.71, -7744.37, -4684.05, -7500.02, 1608.48, 0.02, 0.78, 0.70
220, 28435.20, 21904.98, 11507.53, -8413.24, -7757.11, -4663.13, -7508.11, 1615.11, 0.02, 0.78, 0.70
221, 28310.67, 21892.48, 11380.08, -8536.62, -7878.90, -4765.95, -7626.12, 1520.83, 0.02, 0.78, 0.70
222, 28380.93, 21701.93, 11375.88, -8463.91, -7893.59, -4818.68, -7650.35, 1498.44, 0.02, 0.78, 0.70
223, 28522.14, 21685.35, 11501.27, -8328.64, -7779.08, -4738.10, -7534.59, 1599.51, 0.02, 0.80, 0.70
224, 28467.02, 21880.50, 11513.29, -8398.87, -7749.33, -4681.84, -7499.39, 1641.47, 0.02, 0.80, 0.70
225, 28315.95, 21914.10, 11369.91, -8550.23, -7877.13, -4781.08, -7625.34, 1534.85, 0.02, 0.80, 0.70
226, 28351.00, 21729.81, 11344.00, -8506.38, -7927.45, -4852.18, -7679.95, 1483.46, 0.02, 0.80, 0.70
227, 28505.25, 21677.59, 11460.28, -8358.81, -7832.43, -4789.87, -7583.48, 1562.23, 0.02, 0.80, 0.70
228, 28500.28, 21861.21, 11517.43, -8379.69, -7767.32, -4708.13, -7507.48, 1629.58, 0.02, 0.79, 0.71
229, 28337.65, 21950.98, 11386.45, -8555.96, -7889.34, -4794.27, -7628.16, 1522.56, 0.02, 0.79, 0.71
230, 28332.22, 21784.26, 11318.72, -8553.99, -7973.74, -4884.30, -7713.92, 1448.53, 0.02, 0.79, 0.71
231, 28498.52, 21678.46, 11441.46, -8386.62, -7872.89, -4825.56, -7611.64, 1531.50, 0.02, 0.79, 0.71
232, 28526.28, 21839.31, 11522.91, -8370.75, -7777.98, -4726.25, -7501.18, 1637.87, 0.02, 0.79, 0.71
233, 28373.10, 21970.80, 11420.67, -8524.49, -7855.74, -4760.59, -7565.33, 1593.63, 0.02, 0.78, 0.70
234, 28316.15, 21835.82, 11318.65, -8568.41, -7963.19, -4867.54, -7672.46, 1493.99, 0.02, 0.78, 0.70
235, 28450.62, 21692.19, 11394.32, -8434.41, -7912.67, -4866.78, -7631.20, 1510.04, 0.02, 0.78, 0.70
236, 28515.88, 21805.82, 11495.35, -8383.60, -7814.44, -4781.95, -7535.04, 1592.52, 0.02, 0.78, 0.70
237, 28375.47, 21971.34, 11416.69, -8533.29, -7874.30, -4797.38, -7579.68, 1567.26, 0.02, 0.78, 0.70
238, 28295.32, 21876.57, 11304.13, -8612.44, -7990.57, -4911.73, -7693.90, 1463.12, 0.02, 0.78, 0.70
239, 28429.99, 21715.10, 11372.10, -8473.26, -7945.37, -4909.23, -7659.05, 1482.86, 0.02, 0.77, 0.70
240, 28528.85, 21797.93, 11487.12, -8382.55, -7826.22, -4805.45, -7538.39, 1590.80, 0.02, 0.77, 0.70
241, 28426.81, 21983.30, 11449.50, -8494.13, -7846.31, -4787.21, -7546.02, 1593.77, 0.02, 0.77, 0.70
242, 28311.50, 21937.19, 11325.47, -8604.17, -7978.39, -4896.42, -7667.14, 1486.01, 0.02, 0.77, 0.70
243, 28408.24, 21749.61, 11359.71, -8495.50, -7972.55, -4930.17, -7664.99, 1479.37, 0.02, 0.77, 0.70
244, 28527.29, 21775.43, 11489.13, -8380.05, -7857.11, -4848.76, -7558.89, 1568.00, 0.02, 0.76, 0.69
245, 28446.26, 21971.94, 11477.64, -8470.51, -7849.02, -4812.35, -7543.29, 1585.66, 0.02, 0.76, 0.69
246, 28304.48, 21975.81, 11334.93, -8607.63, -7979.06, -4913.45, -7664.46, 1482.77, 0.02, 0.76, 0.69
247, 28365.41, 21781.26, 11324.71, -8536.80, -8005.88, -4969.26, -7691.59, 1464.06, 0.02, 0.76, 0.69
248, 28504.62, 21751.13, 11450.96, -8400.10, -7893.81, -4895.52, -7581.26, 1553.54, 0.02, 0.76, 0.69
249, 28456.47, 21938.57, 11474.16, -8453.41, -7853.11, -4840.02, -7533.79, 1595.62, 0.02, 0.77, 0.70
250, 28320.62, 21999.44, 11359.09, -8591.88, -7956.80, -4908.42, -7628.02, 1520.90, 0.02, 0.77, 0.70
251, 28332.24, 21823.88, 11303.19, -8575.51, -8032.12, -5004.33, -7703.80, 1438.07, 0.02, 0.77, 0.70
252, 28483.83, 21745.86, 11416.11, -8422.94, -7942.04, -4951.69, -7619.96, 1503.78, 0.02, 0.77, 0.70
253, 28498.61, 21924.36, 11482.07, -8415.36, -7861.15, -4856.68, -7535.40, 1592.32, 0.02, 0.77, 0.70
254, 28345.36, 22029.21, 11364.57, -8571.49, -7960.86, -4922.32, -7632.09, 1515.43, 0.02, 0.78, 0.70
255, 28332.62, 21875.90, 11297.67, -8574.55, -8041.31, -5021.63, -7719.67, 1422.58, 0.02, 0.78, 0.70
0, 28492.26, 21763.80, 11406.03, -8415.32, -7952.50, -4979.61, -7633.81, 1493.61, 0.02, 0.78, 0.70
1, 28531.58, 21911.37, 11497.85, -8382.80, -7855.25, -4880.21, -7521.67, 1598.24, 0.02, 0.78, 0.70
2, 28365.57, 22044.59, 11404.82, -8544.16, -7934.87, -4921.81, -7589.78, 1546.38, 0.02, 0.78, 0.70
3, 28307.43, 21917.83, 11294.00, -8600.77, -8049.31, -5036.23, -7703.22, 1436.86, 0.02, 0.77, 0.70
4, 28445.63, 21765.14, 11363.56, -8463.40, -7997.66, -5025.83, -7658.76, 1464.11, 0.02, 0.77, 0.70
5, 28526.61, 21866.80, 11473.24, -8394.02, -7889.52, -4926.55, -7548.90, 1557.94, 0.02, 0.77, 0.70
6, 28402.00, 22035.73, 11403.59, -8529.34, -7938.89, -4945.30, -7592.37, 1519.40, 0.02, 0.77, 0.70
7, 28313.42, 21953.26, 11277.71, -8614.34, -8065.56, -5060.70, -7725.86, 1404.87, 0.02, 0.77, 0.70
8, 28424.96, 21775.70, 11317.56, -8494.76, -8044.08, -5068.15, -7705.54, 1423.45, 0.02, 0.77, 0.70
9, 28529.16, 21830.08, 11433.14, -8399.58, -7920.83, -4976.91, -7571.47, 1519.52, 0.01, 0.78, 0.69
10, 28429.81, 22017.23, 11397.36, -8509.35, -7933.80, -4963.34, -7577.40, 1513.57, 0.01, 0.78, 0.69
11, 28303.10, 21986.76, 11258.22, -8628.91, -8066.07, -5072.26, -7702.79, 1405.70, 0.01, 0.78, 0.69
12, 28391.14, 21802.65, 11273.12, -8533.23, -8069.58, -5103.24, -7702.61, 1399.62, 0.01, 0.78, 0.69
13, 28525.56, 21813.87, 11403.39, -8405.62, -7948.12, -5015.93, -7582.76, 1489.59, 0.01, 0.78, 0.69
14, 28450.75, 22014.19, 11397.53, -8490.02, -7941.55, -4979.61, -7562.82, 1503.58, 0.02, 0.78, 0.70
15, 28308.10, 22029.72, 11255.06, -8630.68, -8071.75, -5071.92, -7684.84, 1404.05, 0.02, 0.78, 0.70
16, 28367.49, 21840.47, 11246.53, -8562.04, -8100.07, -5126.64, -7721.32, 1369.74, 0.02, 0.78, 0.70
17, 28522.35, 21806.25, 11380.37, -8408.17, -7978.72, -5042.35, -7600.80, 1463.30, 0.02, 0.78, 0.70
18, 28484.75, 22001.20, 11404.55, -8458.50, -7935.41, -4984.53, -7551.40, 1504.45, 0.02, 0.78, 0.70
19, 28322.54, 22068.21, 11263.56, -8622.23, -8060.75, -5078.12, -7672.68, 1398.79, 0.02, 0.78, 0.70
20, 28350.01, 21897.00, 11223.12, -8582.58, -8112.92, -5144.19, -7725.28, 1354.09, 0.02, 0.78, 0.70
21, 28508.82, 21816.58, 11342.77, -8421.15, -8012.50, -5085.29, -7637.30, 1422.04, 0.02, 0.78, 0.70
22, 28526.37, 21988.71, 11415.04, -8416.59, -7934.06, -5002.90, -7558.78, 1490.55, 0.02, 0.78, 0.70
23, 28367.85, 22104.58, 11299.01, -8579.07, -8025.75, -5057.51, -7636.34, 1431.50, 0.02, 0.78, 0.70
24, 28350.53, 21960.28, 11220.93, -8587.16, -8110.89, -5139.49, -7723.02, 1364.42, 0.02, 0.78, 0.70
25, 28489.53, 21835.64, 11301.65, -8453.47, -8051.57, -5126.57, -7673.89, 1393.50, 0.02, 0.78, 0.70
26, 28525.70, 21968.32, 11379.59, -8430.12, -7967.59, -5053.06, -7585.29, 1467.26, 0.02, 0.78, 0.70
27, 28367.27, 22116.13, 11272.03, -8593.49, -8050.87, -5092.67, -7656.12, 1410.15, 0.02, 0.78, 0.70
28, 28294.60, 21993.27, 11156.02, -8656.25, -8161.78, -5199.51, -7765.98, 1315.02, 0.02, 0.78, 0.70
29, 28454.87, 21822.37, 11256.76, -8492.68, -8087.98, -5169.42, -7704.78, 1367.90, 0.02, 0.79, 0.70
30, 28543.09, 21921.29, 11373.39, -8418.31, -7971.48, -5068.08, -7595.52, 1465.85, 0.02, 0.79, 0.70
31, 28412.06, 22103.84, 11299.79, -8564.00, -8019.18, -5084.15, -7630.86, 1439.09, 0.02, 0.79, 0.70
32, 28300.53, 22042.73, 11159.11, -8671.58, -8145.47, -5197.14, -7750.04, 1328.16, 0.02, 0.79, 0.70
33, 28402.61, 21852.76, 11192.43, -8564.90, -8132.99, -5226.31, -7743.56, 1312.70, 0.02, 0.79, 0.70
34, 28530.97, 21894.49, 11329.61, -8443.50, -8005.48, -5118.86, -7617.25, 1423.43, 0.02, 0.78, 0.70
35, 28444.92, 22089.51, 11311.44, -8538.81, -8003.15, -5084.82, -7607.84, 1442.05, 0.02, 0.78, 0.70
36, 28304.39, 22076.73, 11167.92, -8675.02, -8141.94, -5196.91, -7741.44, 1330.80, 0.02, 0.78, 0.70
37, 28395.48, 21883.70, 11186.73, -8577.77, -8147.21, -5232.61, -7754.24, 1310.55, 0.02, 0.78, 0.70
38, 28542.28, 21887.39, 11325.32, -8438.92, -8022.85, -5136.94, -7635.40, 1414.17, 0.02, 0.78, 0.70
39, 28455.09, 22087.50, 11316.17, -8532.58, -8013.73, -5101.45, -7614.21, 1437.46, 0.02, 0.78, 0.70
40, 28289.37, 22116.51, 11164.12, -8696.55, -8149.85, -5198.97, -7732.90, 1335.83, 0.02, 0.78, 0.69
41, 28339.98, 21922.90, 11138.12, -8643.31, -8188.78, -5266.56, -7775.34, 1287.64, 0.02, 0.78, 0.69
42, 28517.83, 21867.45, 11283.25, -8470.77, -8061.80, -5187.30, -7665.17, 1371.48, 0.02, 0.78, 0.69
43, 28495.34, 22055.38, 11324.31, -8499.72, -8004.14, -5109.99, -7598.03, 1445.29, 0.02, 0.78, 0.69
44, 28328.60, 22143.07, 11191.47, -8664.09, -8112.88, -5180.66, -7688.93, 1370.45, 0.02, 0.78, 0.69
45, 28321.40, 21971.74, 11115.54, -8665.48, -8191.78, -5288.44, -7773.60, 1268.55, 0.01, 0.77, 0.70
46, 28477.33, 21869.13, 11226.57, -8513.76, -8102.80, -5244.99, -7693.29, 1323.74, 0.01, 0.77, 0.70
47, 28510.43, 22027.62, 11309.07, -8485.33, -8004.18, -5133.39, -7580.82, 1444.97, 0.01, 0.77, 0.70
48, 28358.84, 22156.90, 11203.79, -8638.52, -8087.84, -5174.81, -7649.86, 1395.73, 0.01, 0.77, 0.70
49, 28306.87, 22011.01, 11103.88, -8686.83, -8199.71, -5298.28, -7771.61, 1273.80, 0.01, 0.77, 0.70
50, 28451.62, 21865.39, 11193.22, -8539.57, -8133.33, -5279.59, -7717.61, 1305.21, 0.01, 0.77, 0.70
51, 28518.23, 21988.33, 11299.72, -8479.22, -8030.13, -5170.99, -7606.25, 1414.49, 0.01, 0.77, 0.70
52, 28370.78, 22145.68, 11203.99, -8628.71, -8099.31, -5206.77, -7666.85, 1366.38, 0.01, 0.77, 0.70
53, 28282.11, 22041.14, 11083.80, -8713.07, -8219.88, -5336.46, -7797.43, 1237.64, 0.01, 0.77, 0.70
54, 28432.89, 21874.36, 11165.32, -8555.67, -8166.23, -5313.32, -7745.93, 1286.07, 0.01, 0.77, 0.70
55, 28521.58, 21959.69, 11278.56, -8468.20, -8054.90, -5204.72, -7629.07, 1394.15, 0.01, 0.78, 0.70
56, 28394.38, 22141.26, 11213.58, -8604.75, -8094.71, -5211.73, -7657.35, 1365.56, 0.01, 0.78, 0.70
57, 28278.69, 22084.62, 11073.90, -8719.44, -8226.00, -5334.20, -7785.13, 1244.34, 0.01, 0.78, 0.70
58, 28397.24, 21896.62, 11120.57, -8589.75, -8202.00, -5339.12, -7767.92, 1255.23, 0.01, 0.78, 0.70
59, 28525.16, 21927.80, 11248.87, -8473.14, -8085.23, -5246.83, -7659.79, 1344.64, 0.01, 0.78, 0.70
60, 28433.43, 22127.20, 11223.12, -8577.50, -8092.49, -5229.77, -7659.74, 1342.36, 0.01, 0.78, 0.70
61, 28291.12, 22125.72, 11080.45, -8710.90, -8221.51, -5334.94, -7772.24, 1240.97, 0.01, 0.78, 0.70
62, 28369.84, 21929.72, 11083.11, -8622.23, -8225.91, -5383.77, -7777.78, 1212.27, 0.01, 0.78, 0.70
63, 28510.90, 21913.45, 11211.92, -8487.27, -8106.84, -5301.10, -7661.15, 1306.48, 0.01, 0.78, 0.70
64, 28439.78, 22106.34, 11204.86, -8569.79, -8100.14, -5263.63, -7644.39, 1335.47, 0.01, 0.78, 0.70
65, 28278.22, 22149.59, 11056.65, -8736.60, -8232.08, -5368.37, -7766.76, 1223.96, 0.01, 0.78, 0.70
66, 28315.05, 21957.08, 11022.63, -8693.91, -8278.73, -5451.70, -7826.89, 1147.02, 0.02, 0.78, 0.70
67, 28475.59, 21886.36, 11154.75, -8531.26, -8162.39, -5377.65, -7719.80, 1227.74, 0.02, 0.78, 0.70
68, 28448.34, 22067.12, 11194.80, -8559.44, -8106.75, -5304.49, -7648.72, 1295.31, 0.02, 0.78, 0.70
69, 28304.93, 22159.12, 11088.21, -8701.02, -8196.14, -5358.79, -7726.19, 1230.40, 0.02, 0.78, 0.70
70, 28298.40, 21998.61, 11022.99, -8702.16, -8271.06, -5436.37, -7800.36, 1165.51, 0.02, 0.78, 0.70
71, 28441.45, 21888.48, 11124.24, -8553.70, -8193.84, -5389.81, -7732.72, 1226.84, 0.02, 0.78, 0.70
72, 28485.91, 22040.25, 11209.80, -8523.50, -8097.84, -5302.01, -7636.50, 1296.80, 0.02, 0.78, 0.70
73, 28339.17, 22178.70, 11104.95, -8678.82, -8178.12, -5338.24, -7698.81, 1241.77, 0.02, 0.78, 0.70
74, 28284.63, 22051.11, 11010.20, -8723.55, -8287.85, -5440.77, -7802.79, 1149.95, 0.02, 0.78, 0.70
75, 28444.79, 21907.57, 11108.39, -8555.64, -8204.16, -5406.15, -7726.37, 1214.39, 0.02, 0.78, 0.70
76, 28529.81, 22029.72, 11227.37, -8483.78, -8077.07, -5298.91, -7603.82, 1324.59, 0.02, 0.77, 0.70
77, 28388.66, 22191.62, 11138.25, -8636.38, -8129.62, -5329.15, -7658.42, 1274.85, 0.02, 0.77, 0.70
78, 28285.57, 22101.65, 11007.41, -8727.86, -8253.22, -5447.75, -7779.23, 1160.64, 0.02, 0.77, 0.70
79, 28399.37, 21918.84, 11047.86, -8609.53, -8230.78, -5472.47, -7771.28, 1157.46, 0.02, 0.77, 0.70
80, 28521.74, 21986.05, 11182.00, -8495.76, -8105.64, -5368.46, -7649.68, 1260.10, 0.02, 0.77, 0.70
81, 28414.14, 22177.94, 11136.49, -8613.67, -8137.62, -5357.56, -7668.70, 1253.33, 0.02, 0.77, 0.70
82, 28296.03, 22141.84, 10997.66, -8733.38, -8272.56, -5468.67, -7800.56, 1132.52, 0.02, 0.77, 0.70
83, 28382.98, 21950.84, 11013.80, -8636.67, -8268.63, -5506.60, -7795.93, 1120.07, 0.02, 0.77, 0.70
84, 28501.42, 21965.04, 11139.37, -8516.93, -8145.18, -5404.36, -7664.28, 1239.11, 0.02, 0.77, 0.70
85, 28429.41, 22159.50, 11130.01, -8598.81, -8141.87, -5349.58, -7645.50, 1273.24, 0.02, 0.77, 0.70
86, 28286.91, 22172.97, 10991.16, -8742.33, -8277.10, -5459.17, -7777.09, 1154.29, 0.02, 0.77, 0.70
87, 28356.61, 21983.90, 10994.33, -8663.45, -8292.74, -5518.24, -7800.78, 1118.24, 0.02, 0.77, 0.70
88, 28524.16, 21961.28, 11151.46, -8498.29, -8155.17, -5416.99, -7667.56, 1233.39, 0.02, 0.77, 0.70
89, 28460.50, 22155.23, 11159.24, -8574.06, -8136.19, -5374.54, -7637.88, 1265.29, 0.02, 0.77, 0.70
90, 28289.22, 22208.94, 11007.59, -8746.53, -8273.72, -5481.68, -7772.26, 1139.29, 0.02, 0.77, 0.70
91, 28313.27, 22019.48, 10962.77, -8716.08, -8332.62, -5566.19, -7845.86, 1061.95, 0.01, 0.78, 0.69
92, 28471.23, 21942.91, 11088.68, -8552.16, -8224.82, -5478.93, -7730.73, 1175.08, 0.01, 0.78, 0.69
93, 28466.87, 22118.12, 11140.00, -8562.64, -8160.93, -5394.37, -7652.66, 1258.38, 0.01, 0.78, 0.69
94, 28324.24, 22225.43, 11030.81, -8710.25, -8245.94, -5450.72, -7730.15, 1188.91, 0.01, 0.78, 0.69
95, 28303.59, 22073.98, 10955.46, -8725.76, -8332.75, -5550.52, -7820.07, 1101.23, 0.01, 0.78, 0.69
96, 28469.06, 21953.03, 11070.08, -8557.59, -8240.86, -5504.03, -7733.52, 1163.61, 0.01, 0.78, 0.69
97, 28509.80, 22102.12, 11153.10, -8531.21, -8154.05, -5415.34, -7640.50, 1237.46, 0.02, 0.77, 0.69
98, 28355.76, 22246.20, 11042.19, -8691.41, -8239.28, -5459.95, -7716.72, 1180.08, 0.02, 0.77, 0.69
99, 28278.78, 22127.98, 10929.56, -8757.03, -8354.28, -5569.09, -7832.10, 1076.26, 0.02, 0.77, 0.69
100, 28414.54, 21968.63, 10999.20, -8615.32, -8304.48, -5568.20, -7797.25, 1096.87, 0.02, 0.77, 0.69
101, 28499.46, 22066.83, 11115.34, -8538.72, -8190.62, -5473.76, -7696.96, 1186.52, 0.02, 0.77, 0.69
102, 28360.25, 22242.80, 11040.60, -8684.26, -8240.28, -5494.53, -7735.76, 1153.71, 0.01, 0.78, 0.69
103, 28268.56, 22173.58, 10922.85, -8764.39, -8345.72, -5586.73, -7832.63, 1070.92, 0.01, 0.78, 0.69
104, 28388.10, 21995.55, 10969.52, -8639.93, -8322.92, -5598.98, -7824.65, 1076.73, 0.01, 0.78, 0.69
105, 28508.22, 22049.35, 11098.54, -8533.27, -8204.27, -5504.65, -7706.57, 1171.99, 0.01, 0.78, 0.69
106, 28402.21, 22242.85, 11059.20, -8647.24, -8224.06, -5496.76, -7710.68, 1162.36, 0.01, 0.78, 0.69
107, 28269.35, 22221.01, 10912.12, -8780.70, -8364.42, -5618.27, -7853.96, 1025.19, 0.01, 0.78, 0.69
108, 28351.06, 22023.58, 10921.91, -8691.72, -8377.01, -5667.55, -7876.24, 1001.67, 0.01, 0.78, 0.69
109, 28494.43, 22025.63, 11068.61, -8546.37, -8237.11, -5553.34, -7725.75, 1138.71, 0.01, 0.78, 0.69
110, 28430.14, 22229.12, 11066.64, -8624.15, -8215.14, -5509.01, -7694.63, 1170.29, 0.01, 0.78, 0.69
111, 28265.75, 22256.73, 10918.54, -8787.10, -8357.67, -5626.40, -7832.74, 1049.70, 0.01, 0.78, 0.69
112, 28316.71, 22066.98, 10904.79, -8723.77, -8392.66, -5685.52, -7864.84, 1017.03, 0.01, 0.78, 0.70
113, 28464.70, 22021.36, 11032.24, -8577.17, -8277.61, -5602.73, -7752.05, 1112.58, 0.01, 0.78, 0.70
114, 28438.71, 22203.04, 11068.27, -8611.79, -8229.51, -5531.63, -7697.43, 1165.11, 0.01, 0.78, 0.70
115, 28293.02, 22278.65, 10947.62, -8763.20, -8334.45, -5606.60, -7799.69, 1069.60, 0.01, 0.78, 0.70
116, 28299.74, 22109.88, 10890.02, -8752.58, -8405.51, -5698.40, -7881.14, 982.74, 0.01, 0.78, 0.70
117, 28461.99, 22018.28, 11012.15, -8588.63, -8300.01, -5631.99, -7778.27, 1067.83, 0.01, 0.77, 0.70
118, 28468.43, 22182.38, 11064.54, -8590.45, -8231.95, -5541.24, -7701.76, 1147.11, 0.01, 0.77, 0.70
119, 28320.89, 22301.27, 10963.96, -8740.11, -8318.74, -5590.89, -7767.83, 1083.72, 0.01, 0.77, 0.70
120, 28291.12, 22161.60, 10885.34, -8762.42, -8403.94, -5684.50, -7846.47, 1012.40, 0.01, 0.77, 0.70
121, 28424.24, 22028.07, 10971.20, -8622.52, -8344.62, -5661.07, -7794.84, 1055.63, 0.01, 0.77, 0.70
122, 28482.65, 22150.62, 11067.73, -8572.16, -8244.91, -5571.42, -7702.17, 1134.73, 0.01, 0.78, 0.70
123, 28339.35, 22305.36, 10976.65, -8728.04, -8313.26, -5612.57, -7769.06, 1069.84, 0.01, 0.78, 0.70
124, 28268.85, 22196.33, 10872.02, -8788.75, -8417.29, -5723.34, -7878.63, 963.92, 0.01, 0.78, 0.70
125, 28417.96, 22032.99, 10955.75, -8637.52, -8356.00, -5701.19, -7824.36, 1010.48, 0.01, 0.78, 0.70
126, 28512.44, 22125.12, 11075.67, -8558.08, -8239.12, -5597.86, -7709.92, 1110.32, 0.01, 0.78, 0.70
127, 28377.57, 22305.21, 11001.13, -8701.62, -8287.29, -5616.52, -7749.71, 1074.67, 0.01, 0.78, 0.70
128, 28271.36, 22241.68, 10874.26, -8801.27, -8408.28, -5734.09, -7878.03, 956.27, 0.01, 0.78, 0.71
129, 28372.65, 22053.91, 10910.27, -8693.62, -8390.53, -5761.74, -7878.30, 949.48, 0.01, 0.78, 0.71
130, 28490.78, 22093.56, 11034.39, -8579.92, -8268.80, -5655.97, -7748.05, 1074.34, 0.01, 0.78, 0.71
131, 28402.09, 22288.22, 11014.40, -8676.46, -8269.68, -5623.68, -7728.32, 1097.05, 0.01, 0.78, 0.71
132, 28265.28, 22275.59, 10871.98, -8816.56, -8407.59, -5739.35, -7859.41, 974.20, 0.01, 0.78, 0.71
133, 28329.52, 22080.46, 10863.30, -8749.99, -8435.79, -5802.98, -7902.82, 921.92, 0.01, 0.78, 0.70
134, 28480.99, 22066.45, 11003.18, -8599.52, -8303.70, -5705.39, -7779.88, 1027.20, 0.01, 0.78, 0.70
135, 28440.13, 22260.84, 11027.66, -8649.23, -8265.72, -5630.76, -7728.43, 1074.27, 0.01, 0.78, 0.70
136, 28286.22, 22302.55, 10886.60, -8803.30, -8400.54, -5726.05, -7844.28, 974.63, 0.01, 0.78, 0.70
137, 28321.67, 22117.59, 10852.60, -8759.63, -8440.82, -5802.45, -7894.43, 918.77, 0.01, 0.78, 0.70
138, 28475.36, 22057.97, 10980.61, -8615.08, -8328.89, -5737.67, -7800.11, 983.19, 0.01, 0.78, 0.70
139, 28448.85, 22239.29, 11012.97, -8653.17, -8284.16, -5666.41, -7742.02, 1047.49, 0.01, 0.78, 0.70
140, 28282.40, 22321.75, 10875.20, -8816.22, -8395.81, -5744.04, -7842.38, 962.40, 0.01, 0.78, 0.70
141, 28284.14, 22156.39, 10819.83, -8809.74, -8465.19, -5838.61, -7918.69, 880.88, 0.01, 0.78, 0.70
142, 28455.60, 22059.88, 10943.50, -8642.30, -8367.82, -5780.16, -7825.70, 951.92, 0.01, 0.78, 0.70
143, 28483.45, 22220.90, 11021.02, -8623.12, -8290.02, -5688.63, -7739.56, 1032.29, 0.01, 0.78, 0.70
144, 28332.24, 22344.17, 10915.63, -8778.36, -8377.92, -5734.54, -7816.67, 976.73, 0.01, 0.78, 0.70
145, 28287.36, 22209.05, 10824.68, -8817.32, -8472.27, -5836.82, -7907.58, 884.39, 0.01, 0.78, 0.70
146, 28420.15, 22070.29, 10906.49, -8679.70, -8405.04, -5808.30, -7831.87, 945.75, 0.01, 0.78, 0.70
147, 28501.98, 22187.71, 11017.08, -8609.38, -8290.66, -5703.02, -7723.29, 1048.68, 0.01, 0.78, 0.70
148, 28347.29, 22346.96, 10918.51, -8777.24, -8368.49, -5744.64, -7798.77, 987.61, 0.02, 0.78, 0.70
149, 28253.23, 22247.12, 10792.85, -8863.63, -8489.75, -5864.25, -7922.67, 870.33, 0.02, 0.78, 0.70
150, 28405.22, 22086.99, 10879.33, -8710.70, -8430.41, -5845.85, -7873.65, 899.55, 0.02, 0.78, 0.70
151, 28520.91, 22179.61, 11013.06, -8603.95, -8301.21, -5718.54, -7739.34, 1031.33, 0.02, 0.78, 0.70
152, 28388.37, 22367.14, 10948.84, -8738.57, -8345.49, -5716.39, -7770.49, 1024.11, 0.02, 0.78, 0.70
153, 28272.63, 22309.41, 10811.96, -8857.33, -8474.57, -5834.14, -7905.07, 903.77, 0.02, 0.78, 0.70
154, 28374.40, 22122.53, 10840.04, -8756.45, -8467.42, -5865.68, -7911.04, 887.54, 0.02, 0.77, 0.69
155, 28504.20, 22152.30, 10968.02, -8636.76, -8343.93, -5773.86, -7794.16, 979.81, 0.02, 0.77, 0.69
156, 28420.96, 22346.56, 10943.26, -8738.03, -8351.24, -5751.15, -7797.32, 975.61, 0.02, 0.77, 0.69
157, 28274.35, 22345.24, 10805.48, -8874.96, -8479.00, -5845.45, -7920.68, 880.35, 0.02, 0.77, 0.69
158, 28341.94, 22156.68, 10812.57, -8799.48, -8504.08, -5885.04, -7948.93, 862.46, 0.02, 0.77, 0.69
159, 28498.56, 22137.01, 10957.29, -8653.52, -8386.44, -5800.93, -7843.90, 944.32, 0.02, 0.78, 0.70
160, 28457.35, 22325.35, 10990.46, -8701.02, -8340.64, -5741.13, -7783.75, 991.59, 0.02, 0.78, 0.70
161, 28304.26, 22376.64, 10861.47, -8851.45, -8449.76, -5818.18, -7869.87, 916.44, 0.02, 0.78, 0.70
162, 28315.77, 22197.12, 10821.26, -8831.71, -8513.33, -5911.97, -7948.26, 828.98, 0.02, 0.78, 0.70
163, 28469.51, 22135.89, 10954.54, -8680.12, -8407.36, -5851.19, -7853.22, 895.32, 0.02, 0.78, 0.70
164, 28465.64, 22310.21, 11016.64, -8687.43, -8341.94, -5768.92, -7783.39, 970.94, 0.01, 0.78, 0.70
165, 28312.48, 22401.61, 10903.05, -8840.18, -8443.75, -5829.38, -7877.02, 891.70, 0.01, 0.78, 0.70
