%OpenBCI Raw EEG Data
%
%Sample Rate = 250.0 Hz
%First Column = SampleIndex
%Other Columns = EEG data in microvolts followed by Accel Data (in G) interleaved with Aux Data
0, 33985.29, 42475.73, 22642.16, 2547.65, 4735.93, 8351.26, -1983.65, -14132.81, 0.02, 0.73, 0.73
1, 33849.68, 42522.92, 22463.93, 2374.83, 4563.22, 8308.97, -1957.99, -14097.71, 0.02, 0.73, 0.73
2, 33727.73, 42522.05, 22345.13, 2260.48, 4438.70, 8151.32, -2102.90, -14249.30, 0.03, 0.76, 0.70
3, 33842.48, 42480.02, 22507.78, 2425.39, 4591.70, 8163.93, -2154.02, -14321.12, 0.03, 0.76, 0.70
4, 33971.25, 42478.75, 22649.00, 2569.42, 4736.87, 8326.76, -2003.30, -14176.95, 0.03, 0.76, 0.70
5, 33855.02, 42516.70, 22494.75, 2424.67, 4596.73, 8323.14, -1934.86, -14096.31, 0.03, 0.76, 0.70
6, 33701.00, 42530.25, 22337.57, 2273.02, 4437.69, 8167.75, -2078.80, -14231.44, 0.03, 0.76, 0.70
7, 33767.98, 42484.63, 22459.68, 2390.79, 4543.68, 8141.04, -2170.26, -14331.11, 0.03, 0.77, 0.71
8, 33932.27, 42478.39, 22648.84, 2581.63, 4735.06, 8314.25, -2021.63, -14190.97, 0.03, 0.77, 0.71
9, 33860.23, 42514.96, 22544.15, 2480.17, 4643.11, 8362.97, -1907.10, -14070.27, 0.03, 0.77, 0.71
10, 33674.46, 42524.55, 22341.93, 2282.18, 4443.08, 8204.36, -2038.34, -14179.79, 0.03, 0.77, 0.71
11, 33716.80, 42493.01, 22423.54, 2365.40, 4517.73, 8149.18, -2143.69, -14294.79, 0.03, 0.77, 0.71
12, 33883.41, 42462.88, 22614.91, 2558.69, 4708.35, 8287.65, -2003.12, -14210.68, 0.04, 0.77, 0.71
13, 33862.64, 42496.39, 22563.53, 2511.35, 4669.08, 8368.81, -1863.73, -14075.23, 0.04, 0.77, 0.71
14, 33681.48, 42529.80, 22355.77, 2310.70, 4470.80, 8235.63, -1950.90, -14147.47, 0.04, 0.77, 0.71
15, 33678.85, 42505.35, 22376.69, 2331.98, 4483.49, 8134.98, -2099.14, -14297.83, 0.04, 0.77, 0.71
16, 33865.26, 42480.14, 22592.88, 2543.76, 4690.47, 8256.94, -2035.37, -14250.62, 0.04, 0.77, 0.71
17, 33882.85, 42502.00, 22585.74, 2536.61, 4690.02, 8354.95, -1898.38, -14114.43, 0.06, 0.77, 0.71
18, 33698.72, 42526.88, 22368.40, 2321.21, 4479.85, 8237.67, -1953.18, -14154.33, 0.06, 0.77, 0.71
19, 33642.70, 42504.03, 22336.21, 2291.23, 4443.46, 8113.82, -2103.46, -14304.18, 0.06, 0.77, 0.71
20, 33820.51, 42475.98, 22555.46, 2506.41, 4651.58, 8208.12, -2066.24, -14289.67, 0.06, 0.77, 0.71
21, 33885.60, 42483.36, 22608.43, 2558.22, 4708.64, 8345.05, -1907.30, -14137.50, 0.06, 0.77, 0.71
22, 33718.41, 42516.10, 22400.89, 2352.43, 4507.39, 8268.47, -1928.44, -14138.73, 0.06, 0.77, 0.71
23, 33629.20, 42510.16, 22320.72, 2272.35, 4423.57, 8128.50, -2085.69, -14283.46, 0.06, 0.76, 0.71
24, 33764.05, 42463.04, 22499.96, 2450.11, 4593.15, 8170.57, -2110.38, -14321.52, 0.06, 0.76, 0.71
25, 33886.38, 42474.21, 22616.08, 2567.03, 4712.46, 8331.23, -1949.74, -14170.96, 0.06, 0.76, 0.71
26, 33752.12, 42511.86, 22434.54, 2389.38, 4542.05, 8298.40, -1918.45, -14122.61, 0.06, 0.76, 0.71
27, 33624.96, 42516.23, 22304.51, 2260.86, 4413.26, 8148.10, -2064.38, -14258.49, 0.06, 0.76, 0.71
28, 33744.41, 42481.34, 22467.73, 2419.91, 4567.62, 8162.54, -2111.28, -14323.38, 0.06, 0.77, 0.71
29, 33890.36, 42473.03, 22620.21, 2566.96, 4718.59, 8315.12, -1968.29, -14194.32, 0.06, 0.77, 0.71
30, 33784.77, 42502.13, 22471.59, 2418.82, 4577.39, 8309.73, -1905.66, -14125.74, 0.06, 0.77, 0.71
31, 33624.04, 42512.46, 22298.64, 2250.17, 4404.14, 8153.69, -2041.90, -14244.03, 0.06, 0.77, 0.71
32, 33699.50, 42477.77, 22416.23, 2365.40, 4509.75, 8134.13, -2128.71, -14338.73, 0.06, 0.77, 0.71
33, 33870.83, 42462.64, 22602.33, 2549.93, 4696.17, 8289.50, -2007.45, -14230.62, 0.05, 0.77, 0.71
34, 33828.27, 42504.66, 22520.57, 2470.61, 4620.33, 8352.56, -1893.89, -14106.05, 0.05, 0.77, 0.71
35, 33652.07, 42528.19, 22321.72, 2272.90, 4420.93, 8205.01, -2006.36, -14200.58, 0.05, 0.77, 0.71
36, 33675.27, 42492.05, 22378.65, 2323.60, 4468.07, 8122.33, -2134.55, -14338.40, 0.05, 0.77, 0.71
37, 33854.29, 42463.75, 22581.43, 2519.91, 4664.85, 8254.28, -2046.24, -14271.21, 0.05, 0.77, 0.71
38, 33846.69, 42488.34, 22553.31, 2484.26, 4641.54, 8346.83, -1909.31, -14133.43, 0.05, 0.77, 0.71
39, 33665.48, 42516.04, 22342.60, 2268.25, 4441.98, 8221.66, -1976.54, -14186.70, 0.05, 0.77, 0.71
40, 33656.43, 42497.77, 22351.16, 2276.32, 4449.87, 8121.26, -2116.44, -14327.85, 0.05, 0.77, 0.71
41, 33835.24, 42463.04, 22559.12, 2486.81, 4654.64, 8232.73, -2057.19, -14286.77, 0.05, 0.77, 0.71
42, 33876.06, 42478.06, 22570.77, 2504.71, 4675.78, 8344.75, -1911.36, -14141.86, 0.05, 0.77, 0.71
43, 33702.32, 42509.86, 22348.48, 2290.74, 4461.50, 8239.59, -1959.69, -14172.57, 0.05, 0.77, 0.71
44, 33643.69, 42495.45, 22297.12, 2247.27, 4406.00, 8105.50, -2118.10, -14330.49, 0.05, 0.77, 0.71
45, 33824.83, 42468.58, 22509.93, 2466.09, 4612.75, 8200.16, -2085.84, -14313.77, 0.05, 0.77, 0.71
46, 33915.44, 42480.36, 22586.66, 2546.09, 4696.91, 8347.01, -1918.09, -14155.56, 0.05, 0.77, 0.71
47, 33760.23, 42514.47, 22384.02, 2345.73, 4503.56, 8281.83, -1922.21, -14142.71, 0.05, 0.77, 0.71
48, 33652.92, 42505.93, 22275.46, 2236.98, 4391.87, 8124.99, -2085.06, -14294.70, 0.06, 0.76, 0.72
49, 33782.00, 42462.01, 22452.42, 2409.83, 4561.12, 8162.97, -2106.29, -14330.15, 0.06, 0.76, 0.72
50, 33909.34, 42467.57, 22580.78, 2535.58, 4694.22, 8321.98, -1948.45, -14184.73, 0.06, 0.76, 0.72
51, 33792.51, 42508.03, 22419.80, 2373.98, 4543.53, 8305.51, -1901.49, -14124.38, 0.06, 0.76, 0.72
52, 33647.29, 42506.85, 22267.84, 2219.93, 4389.19, 8138.16, -2054.51, -14265.26, 0.06, 0.76, 0.72
53, 33759.07, 42479.60, 22422.20, 2372.93, 4534.50, 8151.55, -2105.42, -14327.62, 0.06, 0.76, 0.72
54, 33915.71, 42472.52, 22591.44, 2539.69, 4701.94, 8315.00, -1957.97, -14194.27, 0.05, 0.75, 0.72
55, 33836.96, 42509.89, 22467.03, 2416.80, 4587.58, 8332.06, -1877.23, -14103.37, 0.05, 0.75, 0.72
56, 33679.94, 42528.06, 22288.18, 2239.62, 4409.42, 8181.34, -2004.10, -14217.74, 0.05, 0.75, 0.72
57, 33731.31, 42484.23, 22377.40, 2322.15, 4484.39, 8126.42, -2114.94, -14339.85, 0.05, 0.75, 0.72
58, 33908.07, 42468.58, 22576.47, 2514.28, 4682.53, 8274.75, -1992.26, -14236.32, 0.05, 0.75, 0.72
59, 33868.14, 42498.82, 22501.50, 2438.84, 4620.84, 8337.11, -1881.15, -14110.01, 0.05, 0.75, 0.72
60, 33688.41, 42520.68, 22293.88, 2232.38, 4417.46, 8195.40, -1994.42, -14200.22, 0.05, 0.75, 0.72
61, 33688.97, 42482.13, 22324.61, 2261.30, 4436.58, 8103.07, -2137.16, -14344.97, 0.05, 0.75, 0.72
62, 33864.43, 42455.59, 22537.58, 2472.89, 4645.16, 8233.29, -2051.64, -14278.88, 0.05, 0.75, 0.72
63, 33899.17, 42499.09, 22543.01, 2480.69, 4658.98, 8353.58, -1894.15, -14120.76, 0.05, 0.75, 0.72
64, 33723.80, 42529.42, 22327.29, 2266.00, 4448.18, 8231.95, -1962.57, -14172.17, 0.04, 0.75, 0.72
65, 33686.83, 42507.05, 22311.31, 2251.51, 4419.70, 8116.23, -2113.49, -14321.79, 0.04, 0.75, 0.72
66, 33854.00, 42472.83, 22515.98, 2460.28, 4616.84, 8214.40, -2066.24, -14290.63, 0.04, 0.75, 0.72
67, 33910.07, 42489.28, 22555.79, 2500.96, 4664.61, 8339.30, -1910.87, -14142.93, 0.04, 0.75, 0.72
68, 33749.28, 42530.79, 22355.41, 2302.54, 4473.50, 8260.91, -1932.51, -14147.80, 0.04, 0.75, 0.72
69, 33672.19, 42522.18, 22290.88, 2242.60, 4405.19, 8132.37, -2085.78, -14294.41, 0.04, 0.75, 0.72
70, 33811.17, 42466.84, 22470.41, 2417.41, 4577.59, 8180.49, -2097.73, -14322.15, 0.04, 0.75, 0.72
71, 33915.89, 42475.53, 22566.34, 2510.50, 4677.84, 8331.84, -1938.97, -14164.97, 0.04, 0.75, 0.72
72, 33783.34, 42521.18, 22389.14, 2334.26, 4510.27, 8290.98, -1914.56, -14127.22, 0.04, 0.75, 0.72
73, 33661.48, 42516.88, 22270.36, 2216.56, 4390.62, 8138.36, -2065.21, -14269.02, 0.04, 0.75, 0.72
74, 33783.01, 42472.56, 22430.73, 2377.13, 4544.06, 8162.68, -2106.50, -14324.76, 0.04, 0.75, 0.73
75, 33926.06, 42477.07, 22577.25, 2523.36, 4691.09, 8325.87, -1948.02, -14182.38, 0.04, 0.75, 0.73
76, 33816.82, 42515.36, 22421.03, 2372.01, 4543.77, 8317.84, -1892.01, -14109.65, 0.04, 0.75, 0.73
77, 33666.82, 42520.77, 22256.06, 2209.00, 4379.35, 8153.29, -2043.89, -14247.22, 0.04, 0.75, 0.73
78, 33759.70, 42487.60, 22386.97, 2340.56, 4500.77, 8143.72, -2111.35, -14329.30, 0.04, 0.75, 0.73
79, 33919.75, 42475.96, 22558.68, 2517.70, 4675.43, 8304.39, -1970.35, -14205.47, 0.04, 0.75, 0.73
80, 33848.65, 42509.64, 22447.77, 2410.32, 4574.69, 8338.54, -1880.27, -14105.16, 0.05, 0.75, 0.72
81, 33683.61, 42528.04, 22261.09, 2219.86, 4388.50, 8186.75, -2004.39, -14212.29, 0.05, 0.75, 0.72
82, 33733.95, 42496.36, 22351.14, 2302.97, 4468.99, 8136.62, -2100.55, -14324.16, 0.05, 0.75, 0.72
83, 33889.02, 42457.23, 22535.88, 2480.22, 4651.40, 8261.20, -1998.58, -14249.33, 0.05, 0.75, 0.72
84, 33869.35, 42484.43, 22484.65, 2424.29, 4610.76, 8333.29, -1872.05, -14120.76, 0.05, 0.75, 0.72
85, 33691.66, 42511.43, 22278.79, 2217.43, 4409.84, 8202.44, -1960.18, -14192.28, 0.05, 0.74, 0.72
86, 33692.48, 42487.60, 22301.65, 2243.04, 4426.79, 8108.81, -2089.78, -14333.64, 0.05, 0.74, 0.72
87, 33877.62, 42462.43, 22512.74, 2457.89, 4633.56, 8235.32, -2006.78, -14276.04, 0.05, 0.74, 0.72
88, 33903.59, 42487.13, 22512.43, 2464.86, 4640.65, 8347.82, -1863.04, -14129.25, 0.05, 0.74, 0.72
89, 33726.32, 42520.62, 22287.55, 2249.52, 4421.42, 8233.85, -1915.97, -14170.71, 0.05, 0.74, 0.72
90, 33681.55, 42506.85, 22256.01, 2219.62, 4383.40, 8109.46, -2046.17, -14323.15, 0.05, 0.75, 0.73
91, 33845.66, 42470.57, 22457.74, 2421.27, 4580.10, 8198.35, -1990.00, -14307.66, 0.05, 0.75, 0.73
92, 33913.36, 42481.79, 22511.74, 2478.54, 4638.41, 8331.14, -1833.63, -14157.59, 0.05, 0.75, 0.73
93, 33753.39, 42516.32, 22314.73, 2273.35, 4444.00, 8250.99, -1853.54, -14158.44, 0.05, 0.75, 0.73
94, 33659.36, 42507.56, 22226.08, 2180.32, 4349.96, 8098.62, -2019.50, -14318.95, 0.05, 0.75, 0.73
95, 33814.52, 42475.89, 22426.31, 2374.69, 4541.94, 8157.92, -2015.50, -14335.02, 0.05, 0.75, 0.72
96, 33925.25, 42477.12, 22531.16, 2478.05, 4651.80, 8306.15, -1854.66, -14189.89, 0.05, 0.75, 0.72
97, 33807.08, 42525.40, 22364.42, 2314.28, 4492.07, 8276.76, -1823.05, -14146.42, 0.05, 0.75, 0.72
98, 33682.27, 42531.77, 22241.19, 2193.22, 4362.26, 8128.39, -1969.28, -14282.32, 0.05, 0.75, 0.72
99, 33794.56, 42490.78, 22397.54, 2345.48, 4505.96, 8137.38, -2014.05, -14345.89, 0.05, 0.75, 0.72
100, 33923.31, 42473.63, 22533.31, 2476.53, 4640.85, 8278.73, -1879.92, -14229.32, 0.04, 0.75, 0.72
101, 33820.18, 42507.29, 22389.32, 2335.02, 4509.75, 8284.70, -1816.03, -14153.88, 0.04, 0.75, 0.72
102, 33661.08, 42514.38, 22216.27, 2166.84, 4341.13, 8127.00, -1952.11, -14278.45, 0.04, 0.75, 0.72
103, 33740.80, 42483.00, 22335.07, 2287.99, 4453.23, 8104.38, -2028.80, -14369.11, 0.04, 0.75, 0.72
104, 33916.31, 42476.43, 22526.29, 2483.70, 4641.36, 8263.39, -1897.33, -14254.13, 0.04, 0.75, 0.72
105, 33862.87, 42507.63, 22436.84, 2396.20, 4555.49, 8310.36, -1796.95, -14141.77, 0.04, 0.75, 0.72
106, 33671.29, 42513.55, 22224.27, 2182.83, 4344.49, 8147.97, -1918.09, -14250.67, 0.04, 0.75, 0.72
107, 33695.23, 42478.89, 22284.71, 2241.39, 4398.55, 8074.92, -2033.32, -14376.33, 0.04, 0.75, 0.72
108, 33888.86, 42464.51, 22508.45, 2462.51, 4617.76, 8222.33, -1919.68, -14285.38, 0.04, 0.75, 0.72
109, 33884.08, 42491.29, 22464.60, 2419.31, 4582.02, 8301.64, -1795.09, -14160.14, 0.04, 0.75, 0.72
110, 33697.58, 42515.97, 22249.30, 2202.25, 4370.46, 8170.19, -1886.55, -14232.45, 0.04, 0.75, 0.72
111, 33682.04, 42496.59, 22263.48, 2213.56, 4370.97, 8068.38, -2024.76, -14375.23, 0.04, 0.75, 0.72
112, 33862.36, 42471.53, 22477.65, 2427.78, 4578.44, 8184.18, -1956.63, -14329.01, 0.04, 0.75, 0.72
113, 33897.49, 42490.46, 22494.93, 2447.14, 4602.20, 8306.33, -1798.24, -14165.48, 0.04, 0.75, 0.72
114, 33719.82, 42522.20, 22278.34, 2234.79, 4393.86, 8205.17, -1838.59, -14185.74, 0.04, 0.75, 0.72
115, 33664.59, 42515.45, 22241.24, 2197.74, 4349.90, 8080.56, -1984.52, -14334.31, 0.04, 0.75, 0.72
116, 33824.69, 42479.60, 22446.63, 2400.24, 4549.38, 8168.89, -1951.35, -14320.02, 0.04, 0.75, 0.72
117, 33915.26, 42495.00, 22525.55, 2477.62, 4634.81, 8318.76, -1788.54, -14159.14, 0.04, 0.75, 0.72
118, 33762.51, 42528.91, 22327.63, 2280.21, 4447.28, 8250.54, -1797.66, -14146.78, 0.04, 0.75, 0.72
119, 33666.40, 42524.66, 22231.25, 2186.22, 4348.38, 8104.76, -1952.56, -14297.29, 0.04, 0.75, 0.72
120, 33795.48, 42481.23, 22401.12, 2358.51, 4508.53, 8138.27, -1975.87, -14341.35, 0.04, 0.75, 0.72
121, 33916.83, 42483.71, 22528.19, 2487.86, 4636.94, 8295.27, -1820.46, -14199.48, 0.04, 0.75, 0.72
122, 33797.80, 42520.68, 22361.24, 2325.14, 4478.02, 8275.31, -1785.10, -14143.94, 0.04, 0.75, 0.72
123, 33671.49, 42533.38, 22226.28, 2190.85, 4343.08, 8123.50, -1929.13, -14281.02, 0.04, 0.75, 0.72
124, 33768.59, 42493.82, 22367.44, 2331.47, 4475.24, 8125.19, -1977.50, -14347.85, 0.04, 0.75, 0.72
125, 33909.34, 42478.10, 22520.59, 2484.98, 4628.51, 8276.63, -1839.91, -14221.88, 0.04, 0.75, 0.72
126, 33827.46, 42514.98, 22396.36, 2360.48, 4511.63, 8295.36, -1766.75, -14134.88, 0.05, 0.75, 0.72
127, 33673.33, 42536.44, 22222.57, 2188.28, 4336.31, 8145.65, -1898.42, -14251.18, 0.05, 0.75, 0.72
128, 33742.59, 42509.60, 22327.22, 2292.04, 4429.40, 8109.19, -1987.27, -14354.42, 0.05, 0.75, 0.72
129, 33908.00, 42487.16, 22513.79, 2476.77, 4611.46, 8248.29, -1875.94, -14262.85, 0.05, 0.75, 0.72
130, 33879.84, 42526.00, 22447.61, 2415.20, 4554.48, 8317.62, -1762.19, -14133.90, 0.05, 0.75, 0.72
131, 33693.33, 42541.00, 22228.88, 2198.20, 4340.48, 8163.62, -1879.02, -14233.25, 0.05, 0.75, 0.72
132, 33710.61, 42510.98, 22281.40, 2241.86, 4382.01, 8081.79, -2002.87, -14373.11, 0.05, 0.75, 0.72
133, 33889.65, 42482.26, 22495.69, 2447.61, 4591.54, 8217.60, -1905.06, -14299.95, 0.05, 0.75, 0.72
134, 33890.29, 42498.80, 22474.43, 2422.39, 4581.12, 8311.92, -1770.46, -14160.92, 0.05, 0.75, 0.72
135, 33705.27, 42520.79, 22253.02, 2203.17, 4367.20, 8184.11, -1848.53, -14217.81, 0.05, 0.75, 0.72
136, 33669.59, 42497.95, 22235.02, 2188.12, 4343.23, 8067.82, -1998.76, -14373.36, 0.05, 0.75, 0.72
137, 33855.94, 42473.66, 22450.31, 2407.57, 4553.23, 8176.22, -1942.41, -14340.59, 0.05, 0.75, 0.72
138, 33918.04, 42496.41, 22489.72, 2451.32, 4600.82, 8308.66, -1786.51, -14182.11, 0.05, 0.75, 0.72
139, 33749.50, 42531.59, 22278.12, 2246.42, 4397.97, 8227.68, -1822.16, -14188.04, 0.05, 0.75, 0.72
140, 33678.40, 42526.63, 22217.95, 2190.38, 4333.78, 8099.13, -1969.21, -14325.52, 0.05, 0.75, 0.72
141, 33833.97, 42487.04, 22411.29, 2383.77, 4522.20, 8166.79, -1959.18, -14326.39, 0.05, 0.75, 0.72
142, 33918.61, 42485.28, 22486.28, 2458.07, 4600.37, 8299.69, -1814.56, -14186.56, 0.04, 0.75, 0.72
143, 33776.82, 42524.28, 22303.08, 2276.06, 4419.63, 8248.78, -1809.98, -14163.92, 0.04, 0.75, 0.72
144, 33662.22, 42520.50, 22190.90, 2163.43, 4300.36, 8093.48, -1964.07, -14310.44, 0.04, 0.75, 0.72
145, 33781.93, 42478.06, 22356.79, 2323.75, 4454.97, 8111.27, -2000.30, -14370.12, 0.04, 0.75, 0.72
146, 33917.36, 42474.15, 22500.07, 2462.18, 4600.28, 8268.42, -1842.77, -14222.88, 0.04, 0.75, 0.72
147, 33807.50, 42508.46, 22348.88, 2309.56, 4460.45, 8261.56, -1787.60, -14145.90, 0.04, 0.75, 0.73
148, 33663.69, 42515.05, 22189.65, 2149.66, 4302.80, 8105.32, -1929.60, -14273.96, 0.04, 0.75, 0.73
149, 33757.05, 42480.05, 22325.17, 2283.90, 4427.99, 8094.28, -1991.76, -14352.41, 0.04, 0.75, 0.73
150, 33920.74, 42472.29, 22501.32, 2465.20, 4606.52, 8257.47, -1850.39, -14220.34, 0.04, 0.75, 0.73
151, 33850.53, 42504.23, 22388.13, 2352.95, 4500.32, 8290.80, -1770.57, -14121.34, 0.04, 0.75, 0.73
152, 33693.55, 42526.20, 22208.27, 2172.63, 4322.11, 8139.88, -1890.49, -14229.10, 0.04, 0.75, 0.72
153, 33732.11, 42491.18, 22285.87, 2253.97, 4390.96, 8083.17, -1995.85, -14344.54, 0.04, 0.75, 0.72
154, 33893.09, 42461.85, 22476.49, 2441.66, 4575.02, 8212.79, -1897.91, -14264.44, 0.04, 0.75, 0.72
155, 33872.68, 42492.70, 22424.43, 2390.88, 4534.41, 8286.08, -1778.64, -14134.88, 0.04, 0.75, 0.72
156, 33691.01, 42514.04, 22210.95, 2180.21, 4325.51, 8146.58, -1882.67, -14210.03, 0.04, 0.75, 0.72
157, 33686.25, 42486.29, 22229.79, 2197.60, 4336.22, 8048.59, -2024.76, -14345.97, 0.05, 0.75, 0.72
158, 33864.34, 42458.93, 22444.57, 2408.45, 4544.47, 8171.66, -1950.50, -14283.93, 0.05, 0.75, 0.72
159, 33897.74, 42488.00, 22454.70, 2421.48, 4563.78, 8289.95, -1801.80, -14126.84, 0.05, 0.75, 0.72
160, 33713.83, 42515.23, 22230.11, 2202.07, 4346.50, 8172.04, -1870.48, -14172.06, 0.05, 0.75, 0.72
161, 33663.09, 42497.75, 22198.03, 2172.63, 4310.40, 8050.03, -2019.79, -14319.26, 0.05, 0.75, 0.72
162, 33832.34, 42462.66, 22406.53, 2379.77, 4512.15, 8148.10, -1976.94, -14297.47, 0.05, 0.74, 0.72
163, 33909.79, 42480.00, 22465.22, 2441.39, 4576.59, 8286.26, -1823.16, -14142.60, 0.05, 0.74, 0.72
164, 33752.90, 42518.85, 22263.07, 2245.59, 4383.76, 8210.49, -1839.44, -14137.59, 0.05, 0.74, 0.72
165, 33654.28, 42505.98, 22177.71, 2161.57, 4295.09, 8062.85, -1996.28, -14290.54, 0.05, 0.74, 0.72
166, 33803.86, 42471.44, 22372.75, 2354.04, 4475.74, 8119.18, -1996.41, -14311.13, 0.05, 0.74, 0.72
167, 33921.68, 42483.67, 22492.63, 2469.67, 4595.43, 8274.48, -1839.37, -14155.76, 0.05, 0.74, 0.72
168, 33796.48, 42528.02, 22333.19, 2307.21, 4439.50, 8250.12, -1807.74, -14099.39, 0.05, 0.75, 0.72
169, 33653.70, 42520.44, 22191.75, 2163.63, 4290.48, 8082.57, -1971.54, -14244.74, 0.05, 0.75, 0.72
170, 33763.27, 42480.41, 22345.13, 2314.59, 4432.04, 8088.51, -2024.53, -14312.58, 0.05, 0.75, 0.72
171, 33911.17, 42479.13, 22504.14, 2471.39, 4590.00, 8252.33, -1871.18, -14170.04, 0.05, 0.75, 0.72
172, 33811.10, 42515.00, 22363.10, 2329.90, 4456.00, 8257.43, -1810.78, -14085.22, 0.05, 0.75, 0.72
173, 33649.12, 42522.98, 22185.51, 2151.87, 4277.83, 8093.10, -1960.83, -14216.27, 0.05, 0.76, 0.72
174, 33737.43, 42498.49, 22312.49, 2276.84, 4396.90, 8078.46, -2027.50, -14293.67, 0.05, 0.76, 0.72
175, 33900.04, 42478.80, 22493.14, 2455.52, 4577.61, 8230.07, -1899.12, -14173.17, 0.05, 0.76, 0.72
176, 33845.57, 42511.79, 22405.41, 2363.61, 4498.09, 8277.72, -1803.63, -14059.51, 0.05, 0.76, 0.72
177, 33659.80, 42523.66, 22200.71, 2156.59, 4296.79, 8126.04, -1923.52, -14159.09, 0.05, 0.76, 0.72
178, 33689.64, 42494.20, 22270.36, 2219.95, 4355.10, 8061.47, -2032.04, -14279.99, 0.04, 0.76, 0.72
179, 33876.86, 42475.91, 22488.07, 2429.99, 4564.72, 8202.67, -1925.69, -14192.02, 0.04, 0.76, 0.72
180, 33863.52, 42498.13, 22446.65, 2388.19, 4531.55, 8284.52, -1803.88, -14057.86, 0.04, 0.76, 0.72
181, 33674.42, 42518.96, 22228.45, 2170.53, 4317.98, 8148.24, -1899.09, -14128.56, 0.04, 0.76, 0.72
182, 33666.82, 42505.62, 22248.19, 2189.64, 4326.43, 8052.33, -2025.14, -14261.15, 0.04, 0.76, 0.72
183, 33845.79, 42476.16, 22468.40, 2407.86, 4538.41, 8170.19, -1945.74, -14206.39, 0.03, 0.75, 0.72
184, 33890.07, 42498.98, 22494.21, 2433.66, 4568.50, 8288.63, -1792.74, -14052.32, 0.03, 0.75, 0.72
185, 33715.55, 42531.32, 22280.44, 2219.91, 4358.43, 8187.09, -1843.04, -14084.59, 0.03, 0.75, 0.72
186, 33642.48, 42511.70, 22224.43, 2163.43, 4298.91, 8051.25, -1995.72, -14241.68, 0.03, 0.75, 0.72
187, 33806.39, 42476.00, 22426.96, 2366.33, 4496.99, 8130.25, -1972.36, -14239.22, 0.03, 0.75, 0.72
188, 33895.55, 42488.72, 22504.09, 2445.91, 4579.38, 8282.17, -1812.66, -14071.12, 0.03, 0.75, 0.72
189, 33739.33, 42524.37, 22301.92, 2248.79, 4387.33, 8222.76, -1821.71, -14049.46, 0.03, 0.75, 0.72
190, 33633.34, 42517.55, 22196.78, 2148.70, 4283.31, 8071.26, -1973.88, -14195.84, 0.03, 0.75, 0.72
191, 33776.99, 42485.01, 22383.01, 2336.54, 4463.02, 8118.13, -1978.40, -14225.43, 0.03, 0.75, 0.72
192, 33895.32, 42483.60, 22499.80, 2456.86, 4585.73, 8268.63, -1827.86, -14086.67, 0.03, 0.75, 0.72
193, 33774.80, 42521.49, 22328.47, 2291.34, 4425.73, 8242.79, -1798.24, -14037.36, 0.04, 0.75, 0.72
194, 33632.40, 42522.58, 22173.64, 2140.13, 4270.43, 8082.26, -1951.06, -14178.76, 0.04, 0.75, 0.72
195, 33726.64, 42477.45, 22303.75, 2270.80, 4394.44, 8071.48, -2014.65, -14260.43, 0.04, 0.75, 0.72
196, 33883.48, 42472.07, 22468.64, 2437.79, 4559.85, 8229.89, -1868.99, -14128.49, 0.04, 0.75, 0.72
197, 33808.89, 42514.20, 22356.68, 2327.76, 4457.07, 8258.48, -1787.20, -14030.73, 0.04, 0.75, 0.72
198, 33643.62, 42527.05, 22173.18, 2148.34, 4277.05, 8106.02, -1916.26, -14140.96, 0.04, 0.75, 0.72
199, 33695.19, 42486.62, 22257.26, 2234.91, 4356.62, 8050.61, -2014.83, -14252.57, 0.05, 0.75, 0.72
200, 33874.09, 42470.28, 22455.19, 2434.57, 4556.92, 8203.51, -1888.30, -14145.28, 0.05, 0.75, 0.72
201, 33832.05, 42498.64, 22378.12, 2359.99, 4488.25, 8261.16, -1783.89, -14031.67, 0.05, 0.75, 0.72
202, 33660.25, 42527.50, 22180.17, 2160.70, 4291.24, 8121.77, -1888.70, -14123.15, 0.05, 0.75, 0.72
203, 33664.92, 42492.36, 22212.51, 2196.06, 4315.81, 8033.95, -2018.88, -14259.43, 0.05, 0.75, 0.72
204, 33836.52, 42462.19, 22417.48, 2400.76, 4514.69, 8160.00, -1936.58, -14191.93, 0.06, 0.75, 0.72
205, 33856.72, 42498.18, 22414.80, 2399.55, 4518.99, 8269.88, -1793.08, -14046.37, 0.06, 0.75, 0.72
206, 33689.66, 42539.28, 22206.39, 2199.37, 4317.26, 8163.15, -1855.28, -14085.55, 0.06, 0.75, 0.72
207, 33643.38, 42510.04, 22179.26, 2175.12, 4283.47, 8036.64, -2006.38, -14239.60, 0.06, 0.75, 0.72
208, 33814.39, 42477.84, 22394.57, 2389.94, 4491.52, 8140.53, -1948.83, -14206.86, 0.06, 0.75, 0.72
209, 33873.66, 42499.58, 22435.52, 2431.62, 4538.68, 8270.35, -1797.48, -14052.34, 0.06, 0.75, 0.73
210, 33706.07, 42534.43, 22225.19, 2224.74, 4337.24, 8182.77, -1835.10, -14067.29, 0.06, 0.75, 0.73
211, 33614.43, 42513.42, 22146.78, 2145.86, 4253.18, 8033.69, -1996.79, -14232.12, 0.06, 0.75, 0.73
212, 33775.34, 42480.25, 22346.74, 2340.59, 4443.82, 8101.57, -1980.86, -14240.83, 0.06, 0.75, 0.73
213, 33882.34, 42493.41, 22447.77, 2437.75, 4550.12, 8255.95, -1818.94, -14082.07, 0.06, 0.75, 0.73
214, 33734.97, 42529.54, 22256.84, 2247.76, 4365.94, 8202.84, -1819.81, -14059.07, 0.06, 0.75, 0.73
215, 33623.44, 42533.87, 22146.73, 2136.31, 4249.92, 8051.19, -1974.46, -14207.84, 0.06, 0.75, 0.73
216, 33753.41, 42498.69, 22321.03, 2310.37, 4413.53, 8083.93, -1994.38, -14249.01, 0.06, 0.75, 0.73
217, 33895.59, 42500.14, 22464.44, 2456.55, 4557.27, 8249.34, -1837.56, -14097.63, 0.06, 0.75, 0.73
218, 33793.33, 42542.10, 22318.08, 2309.47, 4416.24, 8244.93, -1786.82, -14028.33, 0.06, 0.75, 0.73
219, 33645.83, 42550.32, 22159.61, 2152.09, 4255.46, 8083.20, -1934.23, -14163.00, 0.04, 0.75, 0.73
220, 33732.11, 42510.42, 22285.65, 2277.69, 4371.84, 8063.79, -2002.81, -14248.61, 0.04, 0.75, 0.73
221, 33886.00, 42491.02, 22451.68, 2441.44, 4538.50, 8214.09, -1870.51, -14132.43, 0.04, 0.75, 0.73
222, 33827.17, 42530.27, 22355.07, 2341.79, 4453.05, 8258.39, -1776.23, -14022.66, 0.04, 0.75, 0.73
223, 33658.46, 42544.62, 22160.79, 2145.32, 4262.88, 8106.04, -1896.57, -14129.10, 0.04, 0.75, 0.73
224, 33692.19, 42501.91, 22225.08, 2209.09, 4319.94, 8036.14, -2009.40, -14255.63, 0.04, 0.74, 0.73
225, 33872.55, 42485.73, 22429.21, 2412.76, 4522.27, 8183.78, -1898.87, -14161.01, 0.04, 0.74, 0.73
226, 33867.45, 42526.16, 22388.71, 2369.64, 4487.09, 8267.15, -1772.63, -14025.96, 0.04, 0.74, 0.73
227, 33693.29, 42551.35, 22178.54, 2163.74, 4282.86, 8129.40, -1868.43, -14102.30, 0.04, 0.74, 0.73
228, 33694.34, 42524.68, 22202.79, 2190.29, 4301.77, 8040.88, -1995.59, -14230.44, 0.04, 0.74, 0.73
229, 33871.12, 42494.89, 22410.44, 2397.29, 4504.12, 8161.27, -1918.65, -14174.96, 0.04, 0.74, 0.73
230, 33886.43, 42510.98, 22405.01, 2395.21, 4506.31, 8263.53, -1780.38, -14033.65, 0.04, 0.75, 0.73
231, 33710.21, 42542.54, 22190.12, 2184.95, 4296.25, 8154.79, -1842.50, -14070.62, 0.04, 0.75, 0.73
232, 33658.82, 42522.47, 22155.76, 2149.30, 4255.62, 8026.04, -1995.43, -14228.49, 0.04, 0.75, 0.73
233, 33831.62, 42490.62, 22370.63, 2362.15, 4464.25, 8122.76, -1944.27, -14204.69, 0.04, 0.75, 0.73
234, 33891.97, 42495.45, 22417.97, 2409.14, 4515.16, 8247.32, -1797.88, -14059.16, 0.04, 0.75, 0.73
235, 33734.44, 42537.78, 22220.18, 2213.11, 4326.69, 8176.56, -1818.34, -14056.90, 0.04, 0.75, 0.72
236, 33648.96, 42534.34, 22146.09, 2139.98, 4248.24, 8040.12, -1962.21, -14194.18, 0.04, 0.75, 0.72
237, 33788.06, 42492.65, 22331.85, 2325.94, 4427.30, 8091.64, -1962.53, -14212.47, 0.04, 0.75, 0.72
238, 33905.05, 42502.73, 22442.63, 2437.48, 4540.09, 8243.57, -1805.31, -14063.72, 0.04, 0.75, 0.72
239, 33778.49, 42542.88, 22269.98, 2268.41, 4375.33, 8209.86, -1785.23, -14025.25, 0.04, 0.75, 0.72
240, 33651.51, 42547.66, 22146.24, 2148.78, 4246.41, 8064.98, -1929.67, -14154.20, 0.04, 0.75, 0.71
241, 33754.98, 42503.34, 22292.47, 2294.03, 4383.78, 8071.17, -1975.80, -14217.23, 0.04, 0.75, 0.71
242, 33888.17, 42489.99, 22433.62, 2434.10, 4528.93, 8218.47, -1834.39, -14084.79, 0.04, 0.75, 0.71
243, 33803.19, 42536.13, 22309.86, 2305.90, 4410.09, 8233.78, -1767.22, -13996.55, 0.04, 0.75, 0.71
244, 33650.48, 42551.55, 22130.77, 2127.77, 4228.17, 8067.26, -1921.62, -14133.19, 0.04, 0.75, 0.71
245, 33723.59, 42519.07, 22235.60, 2234.08, 4324.97, 8028.03, -2012.62, -14240.16, 0.04, 0.75, 0.72
246, 33878.31, 42494.31, 22423.25, 2425.37, 4514.07, 8186.50, -1876.59, -14117.36, 0.04, 0.75, 0.72
247, 33823.75, 42525.98, 22343.79, 2345.95, 4440.22, 8244.08, -1773.30, -13998.05, 0.04, 0.75, 0.72
248, 33666.51, 42561.48, 22145.59, 2148.29, 4241.09, 8091.58, -1894.56, -14102.14, 0.04, 0.75, 0.72
249, 33713.09, 42547.50, 22220.05, 2220.67, 4306.13, 8030.74, -1994.51, -14212.83, 0.04, 0.75, 0.72
250, 33880.26, 42517.96, 22425.86, 2427.78, 4508.53, 8173.54, -1884.90, -14124.18, 0.05, 0.76, 0.72
251, 33880.39, 42548.98, 22387.66, 2391.44, 4476.56, 8259.08, -1759.66, -13990.05, 0.05, 0.76, 0.72
252, 33709.49, 42584.45, 22186.32, 2191.19, 4280.96, 8142.14, -1834.56, -14041.66, 0.05, 0.76, 0.72
253, 33689.00, 42557.12, 22190.43, 2192.10, 4278.08, 8035.09, -1971.67, -14183.32, 0.05, 0.76, 0.72
254, 33860.41, 42521.64, 22394.17, 2395.97, 4477.99, 8136.97, -1912.24, -14151.83, 0.05, 0.76, 0.72
255, 33903.04, 42545.74, 22420.45, 2424.40, 4512.95, 8264.67, -1762.35, -13995.70, 0.05, 0.76, 0.72
0, 33722.50, 42573.16, 22200.91, 2205.04, 4300.21, 8164.15, -1818.65, -14019.82, 0.05, 0.75, 0.71
1, 33657.86, 42556.82, 22148.92, 2155.40, 4243.48, 8033.02, -1970.62, -14170.25, 0.05, 0.75, 0.71
2, 33823.04, 42524.24, 22358.99, 2360.50, 4445.25, 8117.39, -1936.02, -14161.53, 0.05, 0.75, 0.71
3, 33914.46, 42540.15, 22440.21, 2441.66, 4529.49, 8263.95, -1781.23, -14009.16, 0.05, 0.75, 0.71
4, 33762.18, 42577.48, 22245.17, 2249.70, 4339.90, 8203.18, -1792.59, -13998.36, 0.05, 0.75, 0.71
5, 33651.02, 42571.38, 22139.96, 2145.16, 4229.08, 8049.29, -1947.26, -14149.57, 0.05, 0.75, 0.71
6, 33788.48, 42533.85, 22321.19, 2322.97, 4401.89, 8088.07, -1958.59, -14184.80, 0.05, 0.75, 0.71
7, 33911.04, 42534.38, 22446.92, 2447.07, 4530.65, 8246.54, -1799.96, -14036.34, 0.05, 0.75, 0.71
8, 33787.63, 42575.82, 22277.45, 2280.84, 4368.27, 8220.70, -1775.22, -13987.16, 0.05, 0.75, 0.71
9, 33651.46, 42585.84, 22133.14, 2137.72, 4224.23, 8068.62, -1923.93, -14120.02, 0.05, 0.75, 0.71
10, 33749.16, 42547.19, 22277.11, 2279.23, 4360.60, 8068.22, -1971.11, -14185.96, 0.04, 0.75, 0.72
11, 33899.73, 42538.90, 22437.57, 2438.53, 4520.19, 8221.96, -1833.22, -14063.85, 0.04, 0.75, 0.72
12, 33817.43, 42573.05, 22312.96, 2315.51, 4402.80, 8242.79, -1761.63, -13982.02, 0.04, 0.75, 0.72
13, 33656.88, 42586.84, 22129.86, 2133.21, 4219.83, 8085.14, -1900.26, -14102.34, 0.04, 0.75, 0.72
14, 33725.72, 42561.27, 22232.43, 2233.77, 4311.72, 8041.75, -1987.58, -14205.63, 0.04, 0.75, 0.72
15, 33896.24, 42540.78, 22423.63, 2422.17, 4500.52, 8182.62, -1864.00, -14108.78, 0.04, 0.75, 0.72
16, 33870.96, 42580.27, 22361.78, 2360.63, 4446.81, 8255.33, -1752.31, -13984.35, 0.04, 0.75, 0.72
17, 33692.04, 42603.72, 22156.34, 2156.59, 4242.70, 8118.09, -1858.03, -14067.72, 0.04, 0.75, 0.72
18, 33695.52, 42568.27, 22184.87, 2187.97, 4268.29, 8025.64, -1985.35, -14202.86, 0.04, 0.75, 0.72
19, 33875.72, 42540.78, 22399.71, 2399.77, 4477.75, 8154.07, -1891.23, -14128.47, 0.04, 0.75, 0.72
20, 33875.81, 42556.11, 22373.87, 2377.58, 4458.97, 8242.85, -1767.53, -14000.22, 0.04, 0.75, 0.72
21, 33692.55, 42581.37, 22150.11, 2158.42, 4242.27, 8121.91, -1846.28, -14053.66, 0.04, 0.75, 0.72
22, 33665.10, 42566.64, 22141.26, 2150.77, 4228.70, 8015.36, -1982.02, -14190.00, 0.04, 0.75, 0.72
23, 33850.22, 42541.98, 22361.02, 2369.42, 4440.89, 8121.39, -1917.85, -14152.52, 0.04, 0.75, 0.72
24, 33907.10, 42557.43, 22395.98, 2407.57, 4481.26, 8246.03, -1774.26, -14008.11, 0.04, 0.75, 0.72
25, 33741.86, 42594.55, 22188.98, 2205.71, 4279.44, 8164.22, -1806.62, -14013.36, 0.04, 0.75, 0.72
26, 33668.50, 42587.34, 22129.28, 2143.80, 4215.96, 8026.51, -1954.41, -14163.76, 0.04, 0.75, 0.72
27, 33831.75, 42553.61, 22335.00, 2342.17, 4411.99, 8096.27, -1935.68, -14171.43, 0.04, 0.75, 0.72
28, 33922.77, 42552.60, 22414.98, 2419.76, 4498.74, 8231.10, -1790.15, -14034.24, 0.04, 0.75, 0.72
29, 33775.68, 42585.01, 22227.94, 2235.80, 4324.35, 8188.58, -1782.24, -13997.60, 0.04, 0.75, 0.72
30, 33658.55, 42585.97, 22115.29, 2126.30, 4209.66, 8046.05, -1930.88, -14130.53, 0.04, 0.75, 0.72
31, 33787.97, 42553.23, 22287.84, 2297.13, 4372.16, 8077.09, -1949.68, -14170.94, 0.05, 0.75, 0.72
32, 33920.54, 42551.82, 22423.56, 2435.16, 4510.27, 8233.09, -1793.97, -14028.22, 0.05, 0.75, 0.72
33, 33814.01, 42589.88, 22273.45, 2289.96, 4369.77, 8232.39, -1743.48, -13956.63, 0.05, 0.75, 0.72
34, 33661.26, 42594.02, 22108.06, 2124.33, 4200.59, 8065.72, -1897.86, -14101.29, 0.05, 0.75, 0.72
35, 33749.97, 42559.84, 22234.08, 2251.58, 4318.78, 8043.79, -1963.96, -14190.81, 0.05, 0.75, 0.72
36, 33908.00, 42544.96, 22406.71, 2423.22, 4490.20, 8197.90, -1829.18, -14067.81, 0.05, 0.75, 0.72
37, 33855.71, 42589.86, 22310.08, 2328.63, 4404.19, 8241.16, -1738.50, -13964.88, 0.05, 0.75, 0.72
38, 33690.49, 42612.35, 22126.88, 2148.14, 4222.67, 8094.24, -1856.92, -14068.23, 0.05, 0.75, 0.72
39, 33730.52, 42578.82, 22206.14, 2226.08, 4291.15, 8037.49, -1959.56, -14178.40, 0.05, 0.75, 0.72
40, 33893.65, 42548.55, 22395.08, 2412.89, 4476.16, 8169.14, -1859.15, -14094.81, 0.05, 0.75, 0.72
41, 33876.53, 42578.57, 22343.47, 2365.22, 4434.47, 8248.78, -1740.73, -13968.61, 0.05, 0.76, 0.73
42, 33704.48, 42607.96, 22140.88, 2163.22, 4236.62, 8120.39, -1832.64, -14039.82, 0.05, 0.76, 0.73
43, 33708.96, 42588.39, 22175.01, 2195.08, 4261.90, 8031.05, -1953.07, -14171.65, 0.05, 0.76, 0.73
44, 33878.34, 42551.89, 22373.51, 2392.42, 4454.34, 8142.61, -1879.69, -14122.95, 0.05, 0.76, 0.73
45, 33903.08, 42570.30, 22372.73, 2393.83, 4459.80, 8247.88, -1744.80, -13985.93, 0.05, 0.76, 0.73
46, 33731.64, 42603.61, 22161.04, 2182.74, 4252.53, 8139.16, -1808.95, -14029.65, 0.05, 0.76, 0.72
47, 33681.57, 42586.13, 22125.75, 2146.50, 4211.60, 8011.09, -1958.15, -14183.46, 0.05, 0.76, 0.72
48, 33850.91, 42555.44, 22340.03, 2360.01, 4420.82, 8107.74, -1906.63, -14159.65, 0.05, 0.76, 0.72
49, 33927.67, 42573.01, 22404.92, 2424.11, 4488.97, 8249.11, -1749.05, -14001.96, 0.05, 0.76, 0.72
50, 33766.09, 42605.87, 22200.06, 2220.33, 4290.82, 8175.96, -1771.11, -13997.47, 0.05, 0.76, 0.72
51, 33658.48, 42587.14, 22101.02, 2123.48, 4187.62, 8018.42, -1935.48, -14158.51, 0.05, 0.75, 0.73
52, 33804.53, 42549.52, 22288.73, 2310.81, 4367.62, 8068.78, -1933.25, -14180.59, 0.05, 0.75, 0.73
53, 33914.77, 42551.75, 22393.85, 2417.56, 4477.75, 8219.27, -1779.62, -14031.46, 0.05, 0.75, 0.73
54, 33789.89, 42591.76, 22224.34, 2248.72, 4318.29, 8190.91, -1755.55, -13979.27, 0.05, 0.75, 0.73
55, 33662.93, 42592.45, 22089.76, 2115.28, 4183.69, 8036.08, -1904.08, -14119.26, 0.05, 0.75, 0.73
56, 33783.18, 42561.14, 22251.81, 2274.47, 4336.91, 8056.48, -1932.73, -14170.42, 0.05, 0.75, 0.73
57, 33925.66, 42554.79, 22396.25, 2420.02, 4482.60, 8206.91, -1792.25, -14043.98, 0.05, 0.75, 0.72
58, 33839.98, 42595.36, 22266.14, 2293.02, 4362.21, 8221.40, -1727.21, -13962.37, 0.05, 0.75, 0.72
59, 33667.22, 42590.75, 22079.19, 2105.06, 4174.50, 8049.47, -1879.11, -14099.19, 0.05, 0.75, 0.72
60, 33738.41, 42555.04, 22194.79, 2215.08, 4278.39, 8013.79, -1958.64, -14198.21, 0.05, 0.75, 0.72
61, 33912.85, 42545.27, 22392.47, 2409.43, 4472.45, 8175.08, -1815.88, -14075.03, 0.05, 0.75, 0.72
62, 33862.73, 42574.51, 22300.07, 2317.07, 4389.97, 8218.47, -1725.49, -13970.49, 0.04, 0.74, 0.72
63, 33707.14, 42607.54, 22114.28, 2134.28, 4206.58, 8083.15, -1832.33, -14061.53, 0.04, 0.74, 0.72
64, 33738.04, 42579.16, 22173.67, 2195.75, 4256.00, 8012.97, -1941.74, -14185.04, 0.04, 0.74, 0.72
65, 33906.14, 42548.29, 22365.49, 2387.79, 4443.55, 8139.16, -1851.10, -14114.01, 0.04, 0.74, 0.72
66, 33914.43, 42589.32, 22339.27, 2364.26, 4423.88, 8236.53, -1723.57, -13975.63, 0.04, 0.74, 0.72
67, 33749.34, 42629.20, 22125.75, 2156.14, 4214.29, 8111.47, -1814.11, -14039.13, 0.04, 0.74, 0.72
68, 33723.62, 42600.93, 22127.73, 2158.15, 4212.07, 8002.01, -1950.84, -14185.94, 0.04, 0.74, 0.72
69, 33877.40, 42552.04, 22341.55, 2372.97, 4419.57, 8117.08, -1875.85, -14133.25, 0.04, 0.74, 0.72
70, 33896.78, 42551.44, 22359.30, 2390.76, 4441.65, 8231.72, -1736.48, -13988.46, 0.04, 0.74, 0.72
71, 33732.04, 42587.76, 22150.96, 2181.73, 4241.00, 8140.42, -1785.32, -14013.90, 0.04, 0.74, 0.72
72, 33648.49, 42558.57, 22101.47, 2129.81, 4190.04, 8008.61, -1928.20, -14161.13, 0.04, 0.75, 0.72
73, 33796.69, 42509.20, 22298.39, 2326.55, 4383.06, 8084.65, -1897.71, -14153.21, 0.04, 0.75, 0.72
74, 33885.54, 42519.68, 22371.82, 2401.36, 4461.59, 8227.81, -1745.27, -14003.81, 0.04, 0.75, 0.72
75, 33727.37, 42548.82, 22171.52, 2202.32, 4270.05, 8160.60, -1759.15, -13996.86, 0.04, 0.75, 0.72
76, 33621.67, 42548.42, 22067.09, 2099.32, 4162.03, 8006.39, -1913.94, -14150.20, 0.04, 0.75, 0.72
77, 33760.92, 42517.71, 22246.20, 2279.50, 4332.44, 8042.11, -1924.35, -14185.62, 0.04, 0.75, 0.72
78, 33902.75, 42532.11, 22384.58, 2417.25, 4471.87, 8209.10, -1761.79, -14031.93, 0.04, 0.75, 0.72
79, 33797.54, 42580.43, 22234.33, 2266.31, 4330.23, 8201.86, -1717.60, -13966.08, 0.04, 0.75, 0.72
80, 33654.13, 42587.43, 22087.23, 2119.19, 4179.55, 8044.19, -1865.61, -14101.96, 0.04, 0.75, 0.72
81, 33735.31, 42540.69, 22220.49, 2246.91, 4301.28, 8030.31, -1924.31, -14181.69, 0.04, 0.75, 0.72
82, 33886.65, 42531.93, 22389.05, 2411.73, 4469.66, 8185.99, -1775.71, -14053.17, 0.04, 0.75, 0.72
83, 33806.30, 42567.69, 22265.09, 2288.84, 4354.97, 8207.92, -1702.55, -13966.51, 0.04, 0.75, 0.72
84, 33637.00, 42577.21, 22077.73, 2101.91, 4170.97, 8048.84, -1836.78, -14085.91, 0.04, 0.75, 0.72
85, 33696.28, 42541.36, 22171.88, 2196.04, 4262.48, 8007.20, -1916.01, -14184.22, 0.04, 0.75, 0.72
86, 33874.71, 42528.51, 22364.57, 2391.93, 4457.25, 8162.03, -1787.04, -14075.83, 0.04, 0.75, 0.72
87, 33842.84, 42560.60, 22291.82, 2323.87, 4394.15, 8225.64, -1685.41, -13959.58, 0.04, 0.75, 0.72
88, 33670.13, 42587.78, 22093.87, 2126.23, 4198.02, 8091.29, -1789.17, -14041.79, 0.04, 0.74, 0.72
89, 33679.83, 42559.38, 22132.52, 2162.58, 4224.35, 8000.05, -1916.24, -14178.47, 0.04, 0.74, 0.72
90, 33861.68, 42537.40, 22347.27, 2377.80, 4431.37, 8132.15, -1819.90, -14103.88, 0.04, 0.74, 0.72
91, 33868.10, 42561.12, 22331.27, 2363.05, 4420.39, 8234.92, -1690.51, -13965.19, 0.04, 0.74, 0.72
92, 33693.67, 42594.62, 22119.51, 2154.04, 4210.69, 8123.70, -1768.09, -14017.63, 0.04, 0.74, 0.72
93, 33650.08, 42570.19, 22101.45, 2136.20, 4180.85, 8003.85, -1911.05, -14162.00, 0.05, 0.75, 0.72
94, 33824.02, 42541.61, 22318.98, 2352.81, 4391.63, 8108.16, -1849.07, -14124.65, 0.05, 0.75, 0.72
95, 33892.95, 42568.20, 22368.75, 2403.66, 4445.83, 8243.43, -1693.08, -13968.14, 0.05, 0.75, 0.72
96, 33720.27, 42598.47, 22157.71, 2194.27, 4242.76, 8152.96, -1729.51, -13986.56, 0.05, 0.75, 0.72
97, 33631.48, 42580.52, 22080.04, 2117.00, 4160.22, 8003.13, -1880.36, -14142.91, 0.05, 0.75, 0.72
98, 33786.05, 42543.59, 22272.82, 2309.85, 4344.08, 8061.13, -1863.17, -14157.95, 0.05, 0.76, 0.72
99, 33900.98, 42559.80, 22375.21, 2412.45, 4449.72, 8214.58, -1684.70, -14009.27, 0.05, 0.76, 0.72
100, 33766.02, 42602.73, 22197.34, 2238.39, 4281.50, 8180.02, -1638.92, -13965.53, 0.05, 0.76, 0.72
101, 33645.21, 42600.73, 22076.62, 2118.95, 4158.41, 8028.08, -1782.26, -14100.98, 0.05, 0.76, 0.72
102, 33759.61, 42556.45, 22237.10, 2275.59, 4308.25, 8043.03, -1812.68, -14151.56, 0.05, 0.76, 0.72
103, 33888.69, 42546.28, 22371.93, 2411.73, 4446.48, 8193.32, -1669.00, -14014.68, 0.05, 0.77, 0.72
104, 33790.54, 42586.96, 22227.83, 2269.39, 4313.10, 8192.09, -1622.38, -13946.46, 0.05, 0.77, 0.72
105, 33634.52, 42589.97, 22063.61, 2101.76, 4146.05, 8028.72, -1778.06, -14084.59, 0.05, 0.77, 0.72
106, 33718.34, 42552.49, 22189.76, 2222.72, 4264.71, 8006.80, -1845.14, -14171.83, 0.05, 0.77, 0.72
107, 33884.46, 42543.41, 22378.81, 2408.02, 4452.56, 8171.35, -1693.99, -14039.98, 0.05, 0.77, 0.72
108, 33817.99, 42580.95, 22277.80, 2305.38, 4356.98, 8209.26, -1613.89, -13936.29, 0.05, 0.77, 0.72
109, 33656.16, 42602.56, 22089.11, 2116.29, 4168.62, 8058.16, -1740.53, -14037.50, 0.05, 0.77, 0.72
110, 33686.47, 42561.50, 22161.55, 2186.56, 4232.28, 7997.45, -1840.42, -14143.18, 0.05, 0.77, 0.72
111, 33862.04, 42540.04, 22360.10, 2382.90, 4429.02, 8135.90, -1730.67, -14050.42, 0.05, 0.77, 0.72
112, 33849.75, 42575.27, 22314.19, 2336.27, 4392.74, 8216.48, -1610.69, -13916.91, 0.05, 0.77, 0.72
113, 33666.84, 42594.73, 22103.91, 2122.61, 4188.34, 8082.17, -1709.46, -13986.40, 0.04, 0.76, 0.72
114, 33672.54, 42577.52, 22134.17, 2149.34, 4204.83, 7992.94, -1835.61, -14119.46, 0.04, 0.76, 0.72
115, 33849.50, 42550.95, 22347.45, 2358.18, 4407.56, 8112.32, -1758.37, -14059.58, 0.04, 0.76, 0.72
116, 33880.50, 42572.94, 22359.21, 2367.03, 4423.88, 8226.74, -1618.36, -13907.63, 0.04, 0.76, 0.72
117, 33711.32, 42607.92, 22150.78, 2156.70, 4220.64, 8120.63, -1677.88, -13944.11, 0.04, 0.76, 0.72
118, 33646.41, 42581.93, 22102.92, 2106.96, 4166.03, 7978.28, -1835.57, -14108.89, 0.04, 0.76, 0.72
119, 33818.16, 42548.96, 22318.46, 2321.36, 4374.73, 8071.80, -1782.60, -14083.81, 0.04, 0.76, 0.72
120, 33905.09, 42567.42, 22386.75, 2390.25, 4451.86, 8220.46, -1617.22, -13919.79, 0.04, 0.76, 0.72
121, 33745.39, 42606.40, 22184.98, 2190.49, 4262.88, 8150.38, -1638.74, -13914.25, 0.04, 0.76, 0.72
122, 33646.68, 42597.89, 22099.04, 2105.27, 4174.77, 8009.77, -1787.71, -14057.68, 0.04, 0.76, 0.72
123, 33797.29, 42569.41, 22289.90, 2298.36, 4356.38, 8069.52, -1777.95, -14073.98, 0.04, 0.76, 0.72
124, 33900.20, 42568.00, 22384.73, 2396.71, 4454.99, 8206.38, -1635.61, -13942.37, 0.03, 0.74, 0.72
125, 33768.77, 42603.79, 22204.87, 2220.65, 4284.25, 8166.30, -1626.69, -13912.73, 0.03, 0.74, 0.72
126, 33640.74, 42607.43, 22072.19, 2093.15, 4151.57, 8011.18, -1776.76, -14050.89, 0.03, 0.74, 0.72
127, 33755.20, 42573.01, 22229.28, 2251.92, 4300.16, 8023.94, -1804.93, -14106.10, 0.03, 0.74, 0.72
128, 33903.06, 42567.69, 22384.94, 2407.73, 4456.60, 8183.00, -1657.40, -13971.40, 0.03, 0.74, 0.72
129, 33811.04, 42603.00, 22254.94, 2282.36, 4338.83, 8204.74, -1592.83, -13883.50, 0.04, 0.74, 0.72
130, 33628.11, 42594.55, 22058.62, 2088.50, 4145.09, 8027.83, -1748.69, -14022.01, 0.04, 0.74, 0.72
131, 33690.36, 42554.88, 22161.60, 2189.96, 4240.80, 7985.52, -1833.54, -14124.22, 0.04, 0.74, 0.72
132, 33864.46, 42545.36, 22361.87, 2390.21, 4437.87, 8147.86, -1692.50, -14001.74, 0.04, 0.74, 0.72
133, 33820.58, 42584.30, 22280.60, 2312.89, 4364.16, 8207.07, -1593.28, -13887.61, 0.04, 0.74, 0.72
134, 33654.64, 42614.29, 22088.82, 2125.38, 4175.44, 8069.11, -1704.25, -13980.70, 0.05, 0.75, 0.71
135, 33666.46, 42574.93, 22134.62, 2172.57, 4213.44, 7988.49, -1819.70, -14112.47, 0.05, 0.75, 0.71
136, 33836.63, 42547.17, 22334.69, 2374.87, 4409.46, 8116.21, -1721.87, -14036.98, 0.05, 0.75, 0.71
137, 33846.38, 42582.66, 22309.01, 2352.66, 4394.87, 8214.31, -1592.41, -13896.44, 0.05, 0.75, 0.71
138, 33669.35, 42611.72, 22097.83, 2143.04, 4190.35, 8091.06, -1677.81, -13959.89, 0.05, 0.75, 0.71
139, 33641.52, 42584.95, 22096.24, 2143.73, 4181.74, 7983.51, -1813.11, -14104.84, 0.06, 0.75, 0.72
140, 33811.50, 42551.33, 22300.69, 2350.04, 4383.38, 8088.38, -1743.26, -14064.57, 0.06, 0.75, 0.72
141, 33854.20, 42568.52, 22320.32, 2372.03, 4411.70, 8206.13, -1602.62, -13921.27, 0.06, 0.75, 0.72
142, 33691.66, 42611.05, 22118.59, 2175.65, 4218.98, 8123.16, -1645.29, -13940.47, 0.06, 0.75, 0.72
143, 33619.39, 42595.36, 22058.38, 2117.47, 4154.83, 7988.54, -1793.28, -14089.49, 0.06, 0.75, 0.72
144, 33777.22, 42561.05, 22257.67, 2316.47, 4346.83, 8064.87, -1758.10, -14079.41, 0.06, 0.75, 0.72
145, 33863.85, 42573.32, 22339.92, 2402.70, 4433.31, 8213.13, -1594.10, -13917.29, 0.06, 0.75, 0.73
146, 33720.64, 42615.30, 22157.08, 2217.70, 4253.51, 8158.90, -1602.49, -13899.95, 0.06, 0.75, 0.73
147, 33619.84, 42614.76, 22060.68, 2120.15, 4153.02, 8012.97, -1753.32, -14043.53, 0.06, 0.75, 0.73
148, 33748.83, 42569.34, 22232.18, 2290.58, 4317.04, 8044.95, -1763.93, -14081.89, 0.06, 0.75, 0.73
149, 33878.79, 42570.97, 22358.45, 2415.96, 4446.68, 8198.13, -1609.91, -13942.08, 0.06, 0.75, 0.73
150, 33758.24, 42605.84, 22193.87, 2252.47, 4293.28, 8180.34, -1583.35, -13893.11, 0.05, 0.76, 0.73
151, 33615.66, 42610.05, 22047.63, 2105.20, 4145.91, 8028.17, -1730.25, -14025.52, 0.05, 0.76, 0.73
152, 33713.70, 42572.43, 22187.66, 2240.20, 4275.35, 8022.80, -1775.47, -14096.66, 0.05, 0.76, 0.73
153, 33863.14, 42557.70, 22349.53, 2399.10, 4437.63, 8172.18, -1629.49, -13974.09, 0.05, 0.76, 0.73
154, 33783.57, 42592.77, 22231.83, 2282.25, 4329.85, 8196.52, -1556.26, -13884.93, 0.05, 0.76, 0.73
155, 33617.61, 42607.54, 22049.28, 2099.79, 4150.03, 8047.14, -1684.79, -13994.78, 0.05, 0.75, 0.73
156, 33672.59, 42574.66, 22140.83, 2189.11, 4233.38, 8000.25, -1770.48, -14097.13, 0.05, 0.75, 0.73
157, 33840.88, 42552.42, 22332.43, 2379.61, 4421.76, 8142.09, -1652.33, -13999.75, 0.05, 0.75, 0.73
158, 33814.68, 42588.32, 22268.88, 2319.46, 4368.51, 8214.47, -1543.43, -13873.15, 0.05, 0.75, 0.73
159, 33644.70, 42614.67, 22063.56, 2117.02, 4169.83, 8080.89, -1648.71, -13957.79, 0.05, 0.75, 0.73
160, 33647.24, 42581.57, 22094.43, 2149.19, 4194.73, 7993.86, -1771.29, -14093.62, 0.05, 0.75, 0.72
161, 33823.39, 42552.04, 22297.79, 2352.43, 4393.28, 8112.83, -1682.77, -14032.74, 0.05, 0.75, 0.72
162, 33844.12, 42579.42, 22284.96, 2342.69, 4389.48, 8210.85, -1557.63, -13903.50, 0.05, 0.75, 0.72
163, 33674.27, 42615.75, 22076.84, 2137.39, 4188.25, 8100.70, -1627.59, -13948.49, 0.05, 0.75, 0.72
164, 33635.38, 42593.73, 22062.11, 2118.23, 4162.10, 7986.64, -1765.07, -14087.23, 0.05, 0.75, 0.72
165, 33797.67, 42552.22, 22262.20, 2318.21, 4354.30, 8075.64, -1717.22, -14063.67, 0.05, 0.75, 0.72
166, 33864.39, 42572.67, 22310.37, 2366.58, 4407.58, 8204.63, -1571.95, -13916.87, 0.05, 0.75, 0.72
167, 33711.37, 42614.74, 22115.49, 2174.00, 4219.65, 8131.97, -1599.36, -13922.48, 0.05, 0.75, 0.72
168, 33621.16, 42600.21, 22037.77, 2096.12, 4136.88, 7989.43, -1746.12, -14074.69, 0.05, 0.75, 0.72
169, 33768.63, 42563.38, 22232.74, 2288.89, 4322.58, 8050.25, -1726.54, -14085.22, 0.05, 0.75, 0.72
170, 33865.11, 42564.09, 22325.12, 2382.34, 4419.07, 8195.00, -1575.86, -13938.41, 0.05, 0.76, 0.73
171, 33724.96, 42601.29, 22138.80, 2200.84, 4238.65, 8152.53, -1571.48, -13906.74, 0.05, 0.76, 0.73
172, 33602.89, 42597.75, 22019.42, 2079.25, 4116.07, 7992.40, -1727.59, -14057.37, 0.05, 0.76, 0.73
173, 33726.59, 42561.72, 22190.68, 2247.22, 4280.11, 8022.17, -1747.33, -14098.63, 0.05, 0.76, 0.73
174, 33856.32, 42556.40, 22327.02, 2384.28, 4417.84, 8180.16, -1605.86, -13961.70, 0.05, 0.76, 0.73
175, 33756.54, 42597.59, 22183.59, 2240.96, 4282.39, 8181.79, -1561.45, -13890.92, 0.05, 0.76, 0.73
176, 33602.20, 42604.57, 22019.13, 2077.68, 4119.25, 8022.67, -1704.16, -14021.61, 0.05, 0.76, 0.73
177, 33690.56, 42571.18, 22146.40, 2203.97, 4241.02, 8005.70, -1760.62, -14104.80, 0.05, 0.76, 0.73
178, 33844.77, 42552.85, 22314.15, 2371.77, 4410.29, 8154.27, -1628.59, -13993.67, 0.05, 0.76, 0.73
179, 33775.50, 42580.70, 22203.26, 2260.95, 4306.67, 8184.52, -1556.15, -13904.06, 0.05, 0.76, 0.73
180, 33599.54, 42595.14, 22004.93, 2064.47, 4112.41, 8029.01, -1682.53, -14006.05, 0.05, 0.76, 0.73
181, 33647.96, 42571.94, 22090.27, 2147.40, 4190.53, 7973.56, -1771.85, -14113.32, 0.05, 0.76, 0.72
182, 33824.69, 42550.97, 22294.63, 2349.82, 4391.07, 8118.33, -1657.09, -14022.84, 0.05, 0.76, 0.72
183, 33813.00, 42584.54, 22249.55, 2307.50, 4351.35, 8199.36, -1544.97, -13893.51, 0.05, 0.76, 0.72
184, 33631.51, 42610.29, 22033.52, 2092.77, 4134.54, 8063.28, -1653.83, -13975.94, 0.05, 0.76, 0.72
185, 33624.87, 42581.59, 22052.32, 2109.02, 4143.19, 7964.62, -1784.88, -14119.08, 0.05, 0.76, 0.72
186, 33799.52, 42551.80, 22264.82, 2317.61, 4350.92, 8085.52, -1698.62, -14059.00, 0.05, 0.76, 0.72
187, 33826.30, 42569.63, 22263.86, 2318.57, 4356.60, 8187.40, -1571.06, -13922.21, 0.05, 0.76, 0.72
188, 33652.32, 42598.91, 22049.35, 2104.60, 4147.52, 8080.29, -1638.05, -13961.93, 0.05, 0.76, 0.72
189, 33605.02, 42585.05, 22019.57, 2072.88, 4111.07, 7958.09, -1774.15, -14103.12, 0.05, 0.76, 0.72
190, 33778.92, 42556.22, 22232.56, 2286.72, 4316.19, 8049.98, -1720.39, -14078.60, 0.05, 0.76, 0.72
191, 33848.16, 42566.04, 22287.55, 2344.54, 4376.38, 8184.52, -1572.98, -13928.65, 0.05, 0.76, 0.72
192, 33699.93, 42609.78, 22097.80, 2155.80, 4194.60, 8123.99, -1588.65, -13913.04, 0.05, 0.76, 0.72
193, 33608.55, 42604.39, 22013.09, 2070.40, 4104.47, 7981.49, -1734.20, -14057.55, 0.05, 0.76, 0.72
194, 33743.60, 42562.75, 22190.83, 2245.66, 4272.40, 8018.82, -1734.79, -14088.88, 0.05, 0.76, 0.72
195, 33857.80, 42565.61, 22301.50, 2356.34, 4386.22, 8166.90, -1583.53, -13947.58, 0.05, 0.76, 0.72
196, 33732.71, 42604.19, 22130.73, 2191.39, 4226.02, 8140.75, -1565.14, -13905.09, 0.05, 0.75, 0.73
197, 33608.30, 42614.02, 22003.75, 2068.48, 4097.66, 7992.94, -1709.98, -14044.70, 0.05, 0.75, 0.73
198, 33711.91, 42571.15, 22147.36, 2212.38, 4233.33, 7993.18, -1753.70, -14115.95, 0.05, 0.75, 0.73
199, 33860.68, 42564.87, 22302.23, 2369.35, 4389.46, 8151.08, -1611.25, -13985.17, 0.05, 0.75, 0.73
200, 33777.42, 42607.70, 22175.12, 2248.50, 4272.33, 8175.60, -1546.05, -13896.41, 0.05, 0.75, 0.73
201, 33622.86, 42620.19, 22001.16, 2077.28, 4100.61, 8023.90, -1680.07, -14019.33, 0.05, 0.76, 0.73
202, 33684.46, 42577.30, 22099.13, 2172.01, 4188.23, 7980.35, -1766.53, -14124.96, 0.05, 0.76, 0.73
203, 33848.54, 42560.31, 22289.05, 2361.86, 4375.60, 8136.26, -1627.14, -14004.98, 0.05, 0.76, 0.73
204, 33807.35, 42599.03, 22215.58, 2289.71, 4311.50, 8200.27, -1521.42, -13884.17, 0.05, 0.76, 0.73
205, 33622.88, 42613.84, 22006.43, 2083.29, 4104.41, 8043.57, -1650.83, -13991.23, 0.05, 0.76, 0.73
206, 33644.43, 42581.37, 22064.08, 2137.59, 4151.61, 7967.48, -1759.33, -14118.84, 0.05, 0.76, 0.73
207, 33832.88, 42565.34, 22280.06, 2347.74, 4362.61, 8103.87, -1649.02, -14035.80, 0.05, 0.76, 0.73
208, 33831.53, 42591.79, 22250.60, 2316.65, 4342.32, 8194.24, -1524.86, -13903.39, 0.05, 0.76, 0.73
209, 33655.33, 42622.05, 22041.97, 2110.41, 4138.05, 8072.35, -1612.83, -13964.61, 0.05, 0.76, 0.73
210, 33625.81, 42594.11, 22037.08, 2103.84, 4124.92, 7959.43, -1745.98, -14109.29, 0.05, 0.76, 0.73
211, 33801.29, 42565.25, 22252.64, 2317.38, 4335.03, 8071.59, -1665.14, -14061.39, 0.05, 0.76, 0.73
212, 33843.76, 42581.73, 22272.30, 2338.60, 4364.49, 8190.82, -1524.14, -13913.56, 0.04, 0.76, 0.73
213, 33669.35, 42611.34, 22052.70, 2124.04, 4154.18, 8090.26, -1586.59, -13945.66, 0.04, 0.76, 0.73
214, 33606.76, 42602.71, 21998.61, 2073.55, 4096.65, 7958.70, -1729.71, -14091.68, 0.04, 0.76, 0.73
215, 33770.94, 42572.34, 22207.26, 2278.83, 4295.56, 8038.45, -1693.88, -14083.68, 0.04, 0.76, 0.73
216, 33863.25, 42584.59, 22288.85, 2361.13, 4378.77, 8181.03, -1545.15, -13936.78, 0.04, 0.76, 0.73
217, 33729.03, 42632.57, 22107.46, 2184.28, 4207.45, 8134.31, -1550.38, -13917.22, 0.04, 0.75, 0.73
218, 33604.91, 42616.97, 21986.09, 2063.83, 4085.18, 7975.15, -1713.62, -14069.73, 0.04, 0.75, 0.73
219, 33728.27, 42570.17, 22152.90, 2228.45, 4244.06, 7999.15, -1732.84, -14114.32, 0.04, 0.75, 0.73
220, 33868.52, 42580.07, 22295.89, 2371.21, 4388.59, 8170.57, -1563.10, -13958.13, 0.04, 0.75, 0.73
221, 33754.82, 42617.49, 22134.78, 2212.00, 4237.67, 8158.25, -1529.06, -13902.23, 0.04, 0.75, 0.73
222, 33604.04, 42615.30, 21978.47, 2055.71, 4081.90, 7994.44, -1685.19, -14044.18, 0.04, 0.75, 0.73
223, 33690.96, 42571.24, 22111.04, 2186.98, 4204.47, 7978.92, -1742.79, -14125.21, 0.04, 0.75, 0.73
224, 33845.86, 42560.89, 22278.63, 2353.59, 4369.50, 8134.09, -1603.38, -13998.38, 0.04, 0.75, 0.73
225, 33765.95, 42591.67, 22156.46, 2233.03, 4255.30, 8154.90, -1542.58, -13915.68, 0.04, 0.75, 0.73
226, 33608.15, 42612.08, 21977.31, 2058.22, 4079.26, 8007.83, -1671.98, -14032.85, 0.04, 0.75, 0.73
227, 33658.46, 42578.48, 22062.58, 2144.07, 4155.41, 7957.04, -1761.12, -14142.44, 0.04, 0.76, 0.73
228, 33821.90, 42552.11, 22250.15, 2330.68, 4340.80, 8096.32, -1642.20, -14046.22, 0.04, 0.76, 0.73
229, 33797.98, 42589.86, 22192.53, 2276.59, 4292.27, 8174.81, -1530.47, -13916.98, 0.04, 0.76, 0.73
230, 33629.56, 42620.48, 21996.78, 2079.43, 4099.67, 8041.26, -1630.87, -13996.62, 0.04, 0.76, 0.73
231, 33637.86, 42592.77, 22035.04, 2117.05, 4133.31, 7954.65, -1739.59, -14122.12, 0.04, 0.76, 0.73
232, 33805.85, 42558.03, 22234.64, 2315.86, 4329.51, 8075.35, -1650.30, -14054.91, 0.04, 0.76, 0.73
233, 33827.17, 42587.36, 22226.26, 2311.04, 4329.78, 8181.59, -1521.19, -13921.02, 0.04, 0.76, 0.73
234, 33656.90, 42619.77, 22013.74, 2102.36, 4123.56, 8069.83, -1597.37, -13979.36, 0.04, 0.76, 0.73
235, 33618.86, 42601.84, 21993.45, 2087.99, 4095.35, 7951.57, -1739.35, -14128.81, 0.04, 0.76, 0.73
236, 33795.41, 42576.18, 22210.10, 2305.76, 4300.74, 8058.50, -1675.29, -14087.05, 0.04, 0.76, 0.73
237, 33856.50, 42593.66, 22256.62, 2350.76, 4349.27, 8186.68, -1535.27, -13942.12, 0.04, 0.76, 0.73
238, 33695.90, 42629.98, 22054.09, 2149.01, 4152.08, 8102.24, -1571.89, -13956.29, 0.04, 0.75, 0.72
239, 33606.43, 42613.44, 21977.11, 2069.86, 4070.39, 7955.72, -1723.50, -14110.34, 0.04, 0.75, 0.72
240, 33756.90, 42574.98, 22170.67, 2262.87, 4259.08, 8021.55, -1698.33, -14112.15, 0.04, 0.75, 0.72
241, 33856.16, 42581.75, 22264.08, 2356.54, 4357.83, 8167.19, -1548.26, -13964.65, 0.04, 0.75, 0.72
242, 33723.17, 42625.98, 22090.70, 2183.63, 4192.02, 8129.28, -1541.71, -13932.92, 0.04, 0.75, 0.72
243, 33601.78, 42623.95, 21972.08, 2063.31, 4069.78, 7974.68, -1696.36, -14077.82, 0.05, 0.76, 0.72
244, 33726.08, 42588.43, 22139.00, 2225.14, 4223.21, 7996.65, -1721.35, -14128.07, 0.05, 0.76, 0.72
245, 33865.44, 42588.77, 22285.11, 2373.60, 4365.16, 8156.91, -1567.82, -13990.87, 0.05, 0.76, 0.72
246, 33759.40, 42625.67, 22134.48, 2226.81, 4220.43, 8152.26, -1530.78, -13931.26, 0.05, 0.76, 0.72
247, 33608.77, 42636.06, 21975.07, 2065.97, 4060.04, 7996.07, -1672.87, -14058.15, 0.05, 0.76, 0.72
248, 33680.46, 42593.28, 22086.85, 2179.03, 4166.14, 7964.48, -1742.12, -14148.01, 0.04, 0.76, 0.72
249, 33845.82, 42584.61, 22270.23, 2363.59, 4349.00, 8124.59, -1601.73, -14027.02, 0.04, 0.76, 0.72
250, 33791.28, 42622.50, 22176.71, 2270.36, 4264.22, 8173.72, -1514.24, -13916.20, 0.04, 0.76, 0.72
251, 33610.61, 42631.46, 21973.44, 2069.46, 4064.40, 8017.70, -1648.91, -14024.36, 0.04, 0.76, 0.72
252, 33642.93, 42595.54, 22043.98, 2138.99, 4127.18, 7951.54, -1743.82, -14140.21, 0.04, 0.76, 0.72
253, 33810.34, 42570.10, 22238.93, 2333.39, 4318.00, 8085.25, -1633.67, -14056.23, 0.04, 0.76, 0.72
254, 33807.77, 42608.95, 22200.29, 2296.11, 4287.47, 8171.02, -1519.56, -13929.45, 0.04, 0.76, 0.72
255, 33635.51, 42639.75, 21997.49, 2094.78, 4088.56, 8046.09, -1612.32, -13998.67, 0.04, 0.76, 0.72
0, 33629.96, 42615.59, 22017.61, 2112.17, 4100.90, 7946.00, -1735.41, -14135.35, 0.04, 0.76, 0.72
1, 33799.05, 42577.25, 22217.63, 2308.91, 4297.08, 8051.97, -1657.47, -14078.89, 0.04, 0.76, 0.72
2, 33829.32, 42598.82, 22224.09, 2318.23, 4312.34, 8164.87, -1519.87, -13934.50, 0.05, 0.76, 0.72
3, 33661.82, 42634.63, 22017.54, 2114.63, 4113.41, 8067.44, -1577.59, -13971.61, 0.05, 0.76, 0.72
4, 33621.74, 42626.25, 21988.26, 2086.49, 4079.57, 7951.05, -1715.56, -14110.30, 0.05, 0.76, 0.72
5, 33784.82, 42588.16, 22188.20, 2286.32, 4275.08, 8038.04, -1669.03, -14090.96, 0.05, 0.76, 0.72
6, 33858.76, 42598.42, 22246.96, 2346.66, 4342.47, 8175.69, -1520.54, -13940.65, 0.05, 0.76, 0.72
7, 33712.33, 42640.04, 22041.43, 2144.05, 4147.23, 8103.11, -1554.83, -13946.13, 0.05, 0.76, 0.72
8, 33620.46, 42635.08, 21952.07, 2054.42, 4051.59, 7956.98, -1709.84, -14094.65, 0.04, 0.75, 0.71
9, 33750.42, 42589.95, 22134.08, 2237.32, 4225.89, 8003.42, -1705.24, -14116.96, 0.04, 0.75, 0.71
10, 33874.31, 42599.05, 22256.66, 2358.35, 4350.97, 8164.49, -1543.92, -13963.83, 0.04, 0.75, 0.71
11, 33761.95, 42647.35, 22093.00, 2193.85, 4193.59, 8134.96, -1524.57, -13924.67, 0.04, 0.75, 0.71
12, 33628.55, 42647.04, 21957.84, 2061.41, 4054.29, 7980.73, -1674.17, -14066.87, 0.04, 0.75, 0.71
13, 33738.15, 42609.78, 22104.42, 2209.60, 4192.05, 7985.65, -1718.33, -14130.79, 0.04, 0.75, 0.72
14, 33879.72, 42601.08, 22252.10, 2358.04, 4340.80, 8134.51, -1577.61, -14003.26, 0.04, 0.75, 0.72
15, 33785.62, 42636.15, 22119.80, 2227.19, 4215.25, 8146.45, -1526.11, -13928.96, 0.04, 0.75, 0.72
16, 33627.15, 42650.37, 21945.66, 2055.24, 4039.43, 7990.95, -1668.94, -14053.52, 0.04, 0.75, 0.72
17, 33698.20, 42621.00, 22056.23, 2166.15, 4139.05, 7952.28, -1738.72, -14148.97, 0.04, 0.75, 0.72
18, 33859.20, 42602.47, 22243.63, 2352.83, 4324.64, 8104.97, -1611.31, -14046.33, 0.04, 0.76, 0.72
19, 33819.26, 42641.09, 22167.25, 2278.34, 4256.51, 8168.11, -1517.73, -13937.12, 0.04, 0.76, 0.72
20, 33639.78, 42658.55, 21964.90, 2077.57, 4056.71, 8025.71, -1635.97, -14037.83, 0.04, 0.76, 0.72
21, 33659.02, 42626.00, 22018.75, 2125.27, 4101.17, 7943.59, -1744.08, -14173.49, 0.04, 0.76, 0.72
22, 33831.51, 42598.04, 22216.27, 2321.63, 4296.12, 8070.14, -1641.89, -14098.07, 0.04, 0.76, 0.72
23, 33830.62, 42622.81, 22182.14, 2290.99, 4271.53, 8160.02, -1523.70, -13967.34, 0.04, 0.76, 0.72
24, 33661.39, 42658.14, 21977.26, 2087.05, 4075.59, 8043.25, -1605.84, -14028.16, 0.04, 0.76, 0.72
25, 33640.47, 42638.75, 21984.30, 2090.09, 4073.00, 7935.96, -1737.94, -14175.12, 0.04, 0.76, 0.72
26, 33807.86, 42602.09, 22185.71, 2292.48, 4267.10, 8039.88, -1671.53, -14122.03, 0.04, 0.76, 0.72
27, 33852.83, 42617.36, 22209.61, 2316.60, 4298.06, 8159.24, -1533.58, -13968.12, 0.04, 0.76, 0.72
28, 33688.28, 42653.79, 22009.14, 2115.21, 4104.20, 8073.25, -1581.27, -13985.29, 0.05, 0.77, 0.72
29, 33627.06, 42646.84, 21960.05, 2067.51, 4049.33, 7948.97, -1722.63, -14122.77, 0.05, 0.77, 0.72
30, 33789.00, 42613.00, 22158.56, 2265.06, 4239.81, 8017.24, -1694.51, -14121.18, 0.05, 0.77, 0.72
31, 33884.93, 42630.00, 22250.69, 2354.18, 4332.30, 8168.53, -1534.69, -13960.97, 0.05, 0.77, 0.72
32, 33734.05, 42663.51, 22057.28, 2157.14, 4142.23, 8108.52, -1557.49, -13950.35, 0.05, 0.77, 0.72
33, 33624.09, 42655.17, 21943.18, 2041.52, 4022.20, 7948.97, -1721.44, -14105.83, 0.04, 0.77, 0.72
34, 33751.07, 42613.67, 22110.99, 2207.66, 4182.41, 7975.91, -1737.62, -14147.96, 0.04, 0.77, 0.72
35, 33879.07, 42614.11, 22242.96, 2338.64, 4317.33, 8131.61, -1582.32, -13997.38, 0.04, 0.77, 0.72
36, 33775.07, 42659.93, 22096.67, 2193.06, 4180.25, 8124.10, -1545.51, -13933.41, 0.04, 0.77, 0.72
37, 33638.39, 42668.43, 21948.14, 2043.44, 4030.38, 7971.21, -1690.60, -14063.25, 0.04, 0.77, 0.72
38, 33723.39, 42622.41, 22077.51, 2167.07, 4148.62, 7955.75, -1747.50, -14131.46, 0.04, 0.77, 0.72
39, 33873.98, 42606.43, 22240.03, 2326.59, 4312.77, 8107.16, -1609.64, -14001.89, 0.04, 0.76, 0.72
40, 33801.27, 42643.75, 22123.09, 2211.28, 4205.50, 8133.67, -1543.21, -13911.48, 0.04, 0.76, 0.72
41, 33635.89, 42659.15, 21940.92, 2031.35, 4024.16, 7983.06, -1673.79, -14022.57, 0.04, 0.76, 0.72
42, 33691.66, 42627.41, 22031.91, 2119.15, 4106.98, 7934.40, -1757.72, -14126.79, 0.04, 0.76, 0.72
43, 33873.46, 42612.68, 22238.67, 2319.35, 4309.04, 8084.13, -1632.48, -14021.23, 0.04, 0.76, 0.72
44, 33843.54, 42643.57, 22177.38, 2259.94, 4260.76, 8156.73, -1528.61, -13899.25, 0.04, 0.75, 0.71
45, 33668.30, 42669.28, 21973.37, 2057.21, 4060.91, 8023.29, -1633.96, -13982.76, 0.04, 0.75, 0.71
46, 33672.68, 42641.11, 22005.58, 2088.59, 4087.11, 7930.62, -1746.97, -14110.99, 0.04, 0.75, 0.71
47, 33852.10, 42611.83, 22213.79, 2298.05, 4293.90, 8060.24, -1648.04, -14037.21, 0.04, 0.75, 0.71
48, 33877.33, 42640.42, 22207.33, 2297.13, 4296.68, 8167.84, -1515.94, -13899.19, 0.04, 0.75, 0.71
49, 33696.06, 42667.69, 21988.04, 2080.12, 4082.12, 8049.60, -1599.92, -13958.40, 0.04, 0.74, 0.72
50, 33656.43, 42646.55, 21970.80, 2062.24, 4056.75, 7932.10, -1737.40, -14106.61, 0.04, 0.74, 0.72
51, 33827.44, 42614.96, 22181.83, 2274.65, 4261.47, 8030.96, -1674.77, -14069.57, 0.04, 0.74, 0.72
52, 33879.28, 42625.31, 22214.64, 2311.71, 4301.68, 8148.62, -1542.58, -13933.12, 0.04, 0.74, 0.72
53, 33718.90, 42664.36, 22013.58, 2113.45, 4108.83, 8072.56, -1581.97, -13946.82, 0.04, 0.74, 0.72
54, 33632.38, 42653.88, 21939.98, 2042.90, 4031.20, 7934.27, -1726.14, -14091.86, 0.06, 0.74, 0.71
55, 33779.79, 42614.56, 22129.72, 2233.86, 4212.99, 7991.80, -1711.41, -14104.96, 0.06, 0.74, 0.71
56, 33883.72, 42622.12, 22229.57, 2335.38, 4316.81, 8142.85, -1560.91, -13957.26, 0.06, 0.74, 0.71
57, 33747.80, 42658.68, 22046.69, 2155.13, 4144.10, 8096.67, -1568.85, -13936.04, 0.06, 0.74, 0.71
58, 33621.58, 42654.35, 21919.04, 2032.15, 4017.03, 7940.55, -1722.07, -14086.02, 0.06, 0.74, 0.71
59, 33743.02, 42619.21, 22083.25, 2199.28, 4172.80, 7961.94, -1740.11, -14127.82, 0.05, 0.75, 0.72
60, 33892.98, 42626.96, 22238.98, 2357.24, 4333.80, 8135.83, -1569.79, -13968.86, 0.05, 0.75, 0.72
61, 33785.69, 42663.09, 22090.00, 2212.58, 4196.90, 8136.48, -1527.54, -13902.85, 0.05, 0.75, 0.72
62, 33619.55, 42662.21, 21909.49, 2033.25, 4016.63, 7965.20, -1686.73, -14046.01, 0.05, 0.75, 0.72
63, 33705.45, 42628.87, 22033.99, 2158.57, 4131.72, 7941.26, -1751.46, -14134.75, 0.05, 0.75, 0.72
64, 33874.58, 42622.29, 22218.66, 2346.26, 4314.31, 8102.91, -1610.89, -14012.62, 0.05, 0.75, 0.72
65, 33814.79, 42656.47, 22115.46, 2247.56, 4219.70, 8140.84, -1539.25, -13920.46, 0.05, 0.76, 0.72
66, 33639.04, 42671.27, 21921.61, 2051.89, 4023.38, 7988.00, -1669.21, -14028.04, 0.05, 0.76, 0.72
67, 33668.45, 42632.96, 21989.00, 2117.38, 4083.15, 7920.72, -1764.38, -14143.92, 0.05, 0.76, 0.72
68, 33840.16, 42608.64, 22192.55, 2317.83, 4285.41, 8064.15, -1645.85, -14046.69, 0.05, 0.76, 0.72
69, 33821.45, 42633.38, 22145.21, 2266.71, 4247.14, 8140.59, -1532.64, -13920.64, 0.05, 0.76, 0.72
70, 33637.95, 42654.86, 21933.74, 2051.98, 4040.55, 8007.87, -1634.27, -14002.32, 0.05, 0.76, 0.72
71, 33628.45, 42629.60, 21951.85, 2070.38, 4054.52, 7911.20, -1755.13, -14138.71, 0.05, 0.76, 0.72
72, 33799.59, 42596.37, 22153.35, 2270.65, 4251.55, 8021.57, -1678.24, -14089.87, 0.05, 0.76, 0.72
73, 33836.43, 42622.68, 22167.70, 2289.13, 4273.85, 8137.87, -1541.35, -13943.89, 0.05, 0.76, 0.72
74, 33674.27, 42663.18, 21964.86, 2093.98, 4079.10, 8048.10, -1593.88, -13963.78, 0.05, 0.76, 0.72
75, 33621.40, 42647.91, 21926.30, 2056.83, 4031.61, 7924.94, -1735.59, -14111.26, 0.04, 0.76, 0.72
76, 33779.81, 42607.59, 22128.70, 2255.63, 4220.52, 8003.87, -1697.28, -14102.74, 0.04, 0.76, 0.72
77, 33855.38, 42618.45, 22190.07, 2318.88, 4284.43, 8138.18, -1556.71, -13957.23, 0.04, 0.76, 0.72
78, 33709.63, 42662.24, 21998.05, 2126.39, 4099.56, 8074.86, -1579.20, -13951.53, 0.04, 0.76, 0.72
79, 33618.77, 42660.00, 21910.36, 2037.12, 4010.62, 7929.30, -1725.09, -14100.75, 0.04, 0.76, 0.72
80, 33754.22, 42616.46, 22087.95, 2214.12, 4181.74, 7970.72, -1720.97, -14126.62, 0.04, 0.76, 0.72
81, 33875.95, 42619.10, 22201.38, 2328.43, 4300.79, 8126.38, -1565.85, -13976.79, 0.04, 0.76, 0.72
82, 33760.99, 42665.05, 22031.38, 2164.16, 4141.76, 8103.38, -1550.59, -13935.46, 0.04, 0.76, 0.72
83, 33639.40, 42674.02, 21894.99, 2032.09, 4005.83, 7951.10, -1699.58, -14075.09, 0.04, 0.76, 0.72
84, 33741.81, 42631.14, 22046.11, 2183.52, 4148.55, 7958.70, -1729.85, -14126.46, 0.04, 0.76, 0.72
85, 33877.06, 42616.66, 22196.91, 2338.19, 4300.90, 8112.07, -1586.88, -13996.06, 0.05, 0.75, 0.72
86, 33786.63, 42649.30, 22063.09, 2204.49, 4176.04, 8121.37, -1536.79, -13925.16, 0.05, 0.75, 0.72
87, 33616.35, 42651.06, 21880.52, 2020.78, 3994.39, 7956.73, -1684.70, -14053.48, 0.05, 0.75, 0.72
88, 33681.57, 42615.16, 21985.20, 2122.03, 4089.32, 7920.65, -1758.88, -14146.98, 0.05, 0.75, 0.72
89, 33867.36, 42611.18, 22184.98, 2320.92, 4287.87, 8080.47, -1617.57, -14025.96, 0.05, 0.75, 0.72
90, 33830.39, 42650.46, 22109.54, 2248.61, 4219.99, 8139.12, -1522.96, -13911.10, 0.05, 0.75, 0.72
91, 33652.34, 42670.04, 21905.38, 2046.59, 4019.02, 7992.22, -1643.81, -14008.26, 0.05, 0.75, 0.72
92, 33669.15, 42636.98, 21953.86, 2093.58, 4059.66, 7910.77, -1752.64, -14130.21, 0.05, 0.75, 0.72
93, 33850.35, 42616.44, 22166.29, 2306.25, 4267.48, 8045.49, -1648.26, -14046.53, 0.05, 0.75, 0.72
94, 33844.99, 42638.52, 22134.84, 2274.87, 4243.70, 8131.77, -1535.05, -13920.33, 0.05, 0.75, 0.72
95, 33653.41, 42656.47, 21910.47, 2048.11, 4024.12, 7992.56, -1640.89, -14000.37, 0.05, 0.75, 0.72
96, 33639.53, 42646.19, 21922.84, 2059.80, 4026.71, 7896.22, -1760.83, -14129.14, 0.05, 0.76, 0.72
97, 33817.27, 42618.83, 22136.14, 2274.83, 4234.00, 8008.83, -1689.08, -14080.32, 0.05, 0.76, 0.72
98, 33855.14, 42629.43, 22154.71, 2295.84, 4265.52, 8125.71, -1555.10, -13934.50, 0.05, 0.76, 0.72
99, 33687.57, 42664.52, 21949.17, 2089.55, 4066.61, 8037.69, -1602.42, -13954.64, 0.05, 0.76, 0.72
100, 33625.65, 42659.31, 21900.55, 2043.42, 4016.25, 7913.84, -1736.13, -14094.36, 0.05, 0.76, 0.72
101, 33782.16, 42623.90, 22098.12, 2241.63, 4208.45, 7987.71, -1701.21, -14080.19, 0.05, 0.76, 0.72
102, 33860.37, 42624.42, 22169.38, 2310.16, 4281.95, 8123.85, -1563.57, -13932.96, 0.05, 0.76, 0.72
103, 33710.39, 42658.93, 21978.25, 2119.93, 4097.77, 8065.76, -1583.49, -13921.43, 0.05, 0.76, 0.72
104, 33604.21, 42657.79, 21871.58, 2012.89, 3985.90, 7914.10, -1737.60, -14069.26, 0.05, 0.76, 0.72
105, 33738.37, 42621.31, 22048.90, 2187.59, 4156.37, 7949.13, -1740.87, -14105.63, 0.05, 0.76, 0.72
106, 33868.12, 42621.45, 22185.76, 2324.18, 4292.21, 8110.29, -1586.64, -13957.75, 0.05, 0.76, 0.72
107, 33767.36, 42667.54, 22038.80, 2180.84, 4153.27, 8104.85, -1551.03, -13896.55, 0.05, 0.76, 0.72
108, 33606.94, 42660.38, 21866.44, 2009.24, 3981.47, 7929.26, -1710.71, -14042.86, 0.05, 0.76, 0.72
109, 33695.99, 42622.54, 21997.89, 2140.31, 4103.11, 7917.03, -1764.31, -14120.40, 0.05, 0.76, 0.72
110, 33849.30, 42610.45, 22159.83, 2304.67, 4266.08, 8065.60, -1630.49, -14003.01, 0.05, 0.76, 0.72
111, 33797.82, 42660.96, 22066.24, 2210.01, 4181.70, 8110.91, -1546.41, -13904.17, 0.05, 0.76, 0.72
112, 33628.96, 42674.57, 21874.24, 2022.36, 3991.17, 7957.11, -1678.28, -14017.43, 0.05, 0.76, 0.72
113, 33672.23, 42634.88, 21953.41, 2102.72, 4061.78, 7897.97, -1772.36, -14130.79, 0.05, 0.76, 0.72
114, 33860.95, 42627.26, 22166.11, 2318.35, 4272.27, 8054.25, -1638.85, -14017.52, 0.05, 0.76, 0.72
115, 33831.78, 42655.87, 22102.21, 2255.60, 4216.48, 8123.50, -1540.37, -13899.92, 0.05, 0.76, 0.72
116, 33655.69, 42680.05, 21895.34, 2048.05, 4013.72, 7985.63, -1654.48, -13990.63, 0.05, 0.76, 0.72
117, 33655.16, 42649.27, 21927.35, 2076.79, 4035.76, 7893.76, -1775.26, -14130.19, 0.05, 0.76, 0.72
118, 33836.05, 42623.05, 22143.72, 2289.58, 4247.30, 8022.67, -1674.28, -14061.21, 0.05, 0.76, 0.72
119, 33851.45, 42642.61, 22127.98, 2278.18, 4240.04, 8120.92, -1549.24, -13928.71, 0.05, 0.76, 0.72
120, 33676.84, 42673.97, 21914.01, 2068.97, 4032.86, 8009.39, -1625.89, -13980.59, 0.05, 0.76, 0.72
121, 33635.82, 42655.84, 21893.51, 2047.13, 4005.45, 7893.61, -1761.36, -14125.01, 0.04, 0.76, 0.72
122, 33807.04, 42627.46, 22103.66, 2257.35, 4207.60, 7989.25, -1705.89, -14097.02, 0.04, 0.76, 0.72
123, 33871.88, 42645.09, 22155.52, 2309.81, 4265.54, 8119.14, -1558.21, -13945.05, 0.04, 0.76, 0.72
124, 33708.06, 42678.44, 21946.08, 2106.20, 4066.18, 8037.53, -1602.04, -13955.92, 0.04, 0.76, 0.72
125, 33618.23, 42662.19, 21863.94, 2023.35, 3979.86, 7888.76, -1762.46, -14116.40, 0.04, 0.76, 0.72
126, 33766.64, 42623.43, 22058.62, 2212.22, 4163.64, 7946.27, -1747.03, -14129.81, 0.04, 0.76, 0.72
127, 33874.94, 42630.21, 22155.79, 2310.68, 4266.25, 8091.67, -1595.18, -13980.37, 0.04, 0.76, 0.72
128, 33743.11, 42671.65, 21982.92, 2138.50, 4103.89, 8061.54, -1586.68, -13941.68, 0.04, 0.76, 0.72
129, 33617.49, 42668.41, 21857.01, 2013.85, 3976.02, 7910.48, -1741.89, -14083.81, 0.04, 0.76, 0.72
130, 33730.10, 42624.26, 22007.13, 2162.67, 4117.62, 7915.47, -1778.93, -14149.30, 0.04, 0.76, 0.72
131, 33874.09, 42624.30, 22160.39, 2314.21, 4272.94, 8077.32, -1620.21, -14006.74, 0.04, 0.76, 0.72
132, 33778.09, 42662.84, 22021.85, 2180.48, 4143.97, 8088.63, -1564.58, -13920.06, 0.05, 0.76, 0.72
133, 33628.60, 42672.52, 21853.39, 2017.00, 3978.74, 7935.49, -1708.16, -14033.65, 0.05, 0.76, 0.72
134, 33689.24, 42623.59, 21948.94, 2112.82, 4064.71, 7894.37, -1789.73, -14130.71, 0.05, 0.76, 0.72
135, 33866.04, 42620.82, 22133.14, 2301.54, 4248.87, 8056.04, -1647.84, -14005.69, 0.05, 0.76, 0.72
136, 33832.14, 42672.34, 22059.23, 2232.00, 4185.45, 8122.38, -1545.87, -13882.51, 0.05, 0.76, 0.72
137, 33660.34, 42693.86, 21875.90, 2041.36, 3997.90, 7977.90, -1665.12, -13982.58, 0.05, 0.76, 0.72
138, 33683.03, 42656.71, 21933.07, 2099.07, 4045.67, 7905.10, -1769.72, -14106.81, 0.05, 0.76, 0.72
139, 33850.09, 42623.99, 22123.55, 2293.33, 4235.92, 8038.85, -1660.44, -14021.38, 0.05, 0.76, 0.72
140, 33842.20, 42651.33, 22082.61, 2254.08, 4202.91, 8121.13, -1549.36, -13894.11, 0.05, 0.76, 0.72
141, 33666.46, 42679.13, 21876.08, 2049.83, 3999.08, 7992.31, -1646.52, -13966.33, 0.05, 0.76, 0.72
142, 33642.44, 42645.29, 21874.94, 2052.69, 3989.70, 7884.56, -1781.39, -14111.33, 0.04, 0.76, 0.71
143, 33820.18, 42617.58, 22103.93, 2268.43, 4205.55, 8004.25, -1696.01, -14054.42, 0.04, 0.76, 0.71
144, 33870.07, 42650.61, 22133.79, 2300.91, 4241.62, 8131.34, -1548.89, -13903.30, 0.04, 0.76, 0.71
145, 33686.07, 42674.66, 21892.50, 2079.65, 4011.76, 8016.81, -1627.03, -13951.82, 0.04, 0.76, 0.71
146, 33619.66, 42649.72, 21849.21, 2030.01, 3955.90, 7884.82, -1768.89, -14097.94, 0.04, 0.76, 0.71
147, 33776.84, 42612.79, 22064.99, 2229.61, 4173.90, 7968.71, -1716.14, -14075.85, 0.04, 0.76, 0.72
148, 33856.81, 42626.09, 22124.18, 2294.32, 4238.36, 8103.98, -1572.85, -13932.83, 0.04, 0.76, 0.72
149, 33696.26, 42654.66, 21908.38, 2090.00, 4033.37, 8025.15, -1615.83, -13947.35, 0.04, 0.76, 0.72
150, 33609.91, 42657.81, 21836.85, 2009.69, 3955.32, 7886.03, -1758.93, -14089.73, 0.04, 0.76, 0.72
151, 33756.32, 42631.88, 22032.20, 2202.23, 4141.38, 7942.80, -1737.54, -14100.20, 0.04, 0.76, 0.72
152, 33851.74, 42622.65, 22119.71, 2302.41, 4233.98, 8086.17, -1597.28, -13963.38, 0.04, 0.76, 0.72
153, 33715.88, 42650.68, 21934.75, 2130.43, 4076.89, 8057.24, -1582.06, -13920.24, 0.04, 0.76, 0.71
154, 33576.77, 42648.67, 21805.60, 1988.66, 3932.99, 7891.98, -1737.38, -14070.33, 0.04, 0.76, 0.71
155, 33685.06, 42612.93, 21959.69, 2134.06, 4062.85, 7894.32, -1778.28, -14144.32, 0.04, 0.76, 0.71
156, 33838.51, 42608.55, 22118.03, 2297.07, 4227.70, 8057.87, -1626.36, -14006.81, 0.04, 0.76, 0.71
157, 33756.68, 42649.00, 22002.36, 2183.94, 4119.45, 8087.51, -1560.71, -13911.23, 0.04, 0.76, 0.71
158, 33605.15, 42666.21, 21819.86, 2012.31, 3955.25, 7942.09, -1690.89, -14023.98, 0.04, 0.76, 0.72
159, 33665.82, 42628.02, 21917.29, 2108.69, 4034.71, 7894.17, -1766.26, -14125.50, 0.04, 0.76, 0.72
160, 33841.08, 42620.33, 22122.04, 2304.84, 4228.73, 8048.86, -1629.20, -14008.20, 0.04, 0.76, 0.72
161, 33796.20, 42649.21, 22027.13, 2218.92, 4141.40, 8100.34, -1549.38, -13904.37, 0.04, 0.76, 0.72
162, 33621.79, 42670.89, 21826.68, 2020.40, 3944.14, 7953.85, -1672.18, -14006.74, 0.04, 0.76, 0.72
163, 33655.87, 42654.91, 21893.38, 2085.66, 4005.97, 7892.15, -1766.86, -14118.90, 0.05, 0.76, 0.72
164, 33829.07, 42626.74, 22088.84, 2284.46, 4200.65, 8019.92, -1665.58, -14043.51, 0.05, 0.76, 0.72
165, 33823.98, 42643.28, 22050.93, 2252.88, 4169.32, 8104.03, -1555.61, -13920.26, 0.05, 0.76, 0.72
166, 33645.99, 42669.66, 21841.14, 2044.42, 3963.17, 7984.45, -1642.50, -13982.67, 0.05, 0.76, 0.72
167, 33616.93, 42645.72, 21838.53, 2041.00, 3951.54, 7876.11, -1771.69, -14117.50, 0.05, 0.76, 0.72
168, 33789.64, 42613.91, 22043.51, 2247.04, 4152.04, 7977.90, -1702.60, -14073.75, 0.04, 0.76, 0.72
169, 33830.95, 42626.65, 22069.31, 2276.37, 4186.15, 8095.89, -1566.54, -13932.33, 0.04, 0.76, 0.72
170, 33669.35, 42667.31, 21870.76, 2080.05, 3994.30, 8013.46, -1614.00, -13955.38, 0.04, 0.76, 0.72
171, 33593.35, 42652.78, 21807.90, 2014.72, 3925.37, 7875.86, -1763.02, -14103.84, 0.04, 0.76, 0.72
172, 33752.86, 42618.27, 22009.22, 2214.05, 4117.28, 7947.70, -1729.20, -14096.42, 0.04, 0.76, 0.72
173, 33847.58, 42629.98, 22093.74, 2302.10, 4208.05, 8096.07, -1574.28, -13940.78, 0.04, 0.76, 0.72
174, 33706.74, 42667.91, 21907.10, 2116.24, 4032.08, 8046.38, -1586.10, -13919.64, 0.04, 0.76, 0.72
175, 33592.88, 42660.89, 21802.25, 2002.47, 3922.26, 7896.45, -1738.34, -14064.25, 0.04, 0.76, 0.72
176, 33724.29, 42625.13, 21976.23, 2175.29, 4085.43, 7928.50, -1746.39, -14098.83, 0.04, 0.76, 0.72
177, 33850.62, 42622.92, 22103.17, 2304.20, 4215.49, 8079.89, -1598.35, -13959.76, 0.04, 0.76, 0.72
178, 33742.50, 42662.30, 21941.72, 2147.78, 4062.47, 8065.13, -1575.82, -13907.81, 0.04, 0.75, 0.72
179, 33608.44, 42675.94, 21796.24, 2000.50, 3915.78, 7914.17, -1720.23, -14039.93, 0.04, 0.75, 0.72
180, 33696.73, 42634.81, 21922.21, 2124.47, 4033.73, 7899.51, -1769.36, -14114.05, 0.04, 0.75, 0.72
181, 33853.82, 42620.37, 22086.81, 2290.65, 4201.30, 8055.43, -1626.85, -13985.98, 0.04, 0.75, 0.72
182, 33782.61, 42657.39, 21975.38, 2182.56, 4098.55, 8084.20, -1557.16, -13899.50, 0.04, 0.75, 0.72
183, 33615.57, 42672.70, 21791.07, 1998.00, 3914.30, 7928.10, -1693.84, -14021.11, 0.04, 0.75, 0.72
184, 33657.95, 42632.00, 21871.16, 2075.85, 3981.87, 7869.11, -1785.81, -14129.59, 0.05, 0.76, 0.73
185, 33837.61, 42618.34, 22079.48, 2282.02, 4184.58, 8020.01, -1653.60, -14022.41, 0.05, 0.76, 0.73
186, 33810.84, 42646.57, 22019.28, 2226.88, 4135.23, 8090.35, -1547.01, -13899.19, 0.05, 0.76, 0.73
187, 33627.30, 42667.87, 21802.34, 2019.30, 3923.47, 7948.26, -1665.41, -13990.38, 0.05, 0.76, 0.73
188, 33633.52, 42644.76, 21838.37, 2054.89, 3950.18, 7861.24, -1777.25, -14114.88, 0.05, 0.76, 0.73
189, 33821.30, 42626.47, 22060.34, 2277.04, 4165.25, 7997.16, -1671.89, -14035.53, 0.05, 0.76, 0.73
190, 33838.55, 42647.48, 22045.05, 2266.06, 4159.93, 8096.85, -1550.97, -13903.99, 0.05, 0.76, 0.73
191, 33650.71, 42666.75, 21819.41, 2041.70, 3943.45, 7969.96, -1642.56, -13969.97, 0.05, 0.76, 0.73
192, 33595.54, 42638.34, 21787.32, 2011.10, 3904.96, 7844.99, -1783.65, -14116.76, 0.05, 0.76, 0.73
193, 33761.84, 42602.69, 21992.84, 2214.77, 4101.57, 7940.37, -1726.94, -14086.78, 0.05, 0.76, 0.73
194, 33831.00, 42621.58, 22044.50, 2267.67, 4159.75, 8075.77, -1579.84, -13938.68, 0.05, 0.75, 0.72
195, 33663.47, 42651.13, 21833.76, 2057.17, 3958.20, 7989.05, -1628.82, -13960.92, 0.05, 0.75, 0.72
196, 33569.70, 42633.45, 21751.46, 1971.56, 3866.32, 7839.32, -1785.48, -14116.13, 0.05, 0.75, 0.72
197, 33726.70, 42603.52, 21950.11, 2171.83, 4056.13, 7906.77, -1761.14, -14113.94, 0.05, 0.75, 0.72
198, 33836.11, 42612.08, 22054.73, 2275.36, 4164.42, 8061.00, -1610.15, -13964.72, 0.05, 0.75, 0.72
199, 33711.04, 42657.03, 21885.73, 2112.26, 4003.33, 8033.40, -1599.80, -13927.51, 0.06, 0.76, 0.72
200, 33588.08, 42656.54, 21762.19, 1992.01, 3876.82, 7880.46, -1752.96, -14068.46, 0.06, 0.76, 0.72
201, 33691.52, 42607.18, 21912.55, 2139.64, 4016.36, 7888.02, -1786.78, -14119.02, 0.06, 0.76, 0.72
202, 33829.27, 42601.13, 22059.36, 2285.80, 4165.65, 8045.91, -1633.35, -13973.04, 0.06, 0.76, 0.72
203, 33730.23, 42641.43, 21924.47, 2148.87, 4039.05, 8050.34, -1590.30, -13901.78, 0.06, 0.76, 0.72
204, 33578.20, 42653.43, 21762.04, 1985.95, 3873.62, 7893.76, -1734.00, -14026.81, 0.06, 0.76, 0.72
205, 33646.32, 42612.10, 21875.34, 2097.04, 3978.12, 7864.98, -1800.92, -14113.49, 0.06, 0.76, 0.72
206, 33817.88, 42604.14, 22068.30, 2286.56, 4169.27, 8030.33, -1651.91, -13978.31, 0.06, 0.76, 0.72
207, 33767.85, 42642.86, 21978.02, 2195.10, 4085.30, 8075.19, -1571.93, -13874.22, 0.06, 0.76, 0.72
208, 33598.65, 42663.62, 21794.02, 2005.15, 3899.75, 7930.26, -1695.74, -13973.46, 0.06, 0.76, 0.72
209, 33625.63, 42623.43, 21859.92, 2066.06, 3954.14, 7862.92, -1793.71, -14084.26, 0.06, 0.76, 0.72
210, 33807.13, 42606.25, 22073.04, 2274.60, 4162.43, 8010.66, -1669.81, -13982.67, 0.05, 0.76, 0.71
211, 33796.11, 42634.41, 22031.15, 2232.74, 4127.90, 8090.66, -1557.63, -13856.23, 0.05, 0.76, 0.71
212, 33620.91, 42660.38, 21825.11, 2028.82, 3926.73, 7966.90, -1656.91, -13927.42, 0.05, 0.76, 0.71
213, 33603.77, 42634.25, 21838.03, 2040.89, 3932.28, 7866.05, -1782.93, -14062.85, 0.05, 0.76, 0.71
214, 33770.54, 42597.39, 22039.45, 2241.81, 4127.61, 7975.53, -1703.36, -14009.31, 0.05, 0.76, 0.71
215, 33816.24, 42624.71, 22060.52, 2266.33, 4157.58, 8095.82, -1558.72, -13861.86, 0.05, 0.76, 0.72
216, 33649.28, 42663.69, 21854.55, 2063.80, 3955.77, 7998.62, -1617.91, -13889.51, 0.05, 0.76, 0.72
217, 33587.65, 42650.64, 21814.21, 2024.04, 3906.26, 7870.29, -1761.45, -14032.56, 0.05, 0.76, 0.72
218, 33760.05, 42621.91, 22026.84, 2238.15, 4113.32, 7959.14, -1703.27, -14008.53, 0.05, 0.76, 0.72
219, 33834.82, 42630.79, 22085.65, 2301.36, 4180.45, 8092.11, -1555.48, -13864.25, 0.05, 0.76, 0.72
220, 33673.71, 42663.64, 21880.79, 2098.11, 3985.76, 8019.27, -1590.24, -13870.13, 0.04, 0.76, 0.72
221, 33574.20, 42655.64, 21788.97, 2000.77, 3888.51, 7865.73, -1747.41, -14027.80, 0.04, 0.76, 0.72
222, 33723.93, 42623.68, 21981.51, 2189.11, 4073.02, 7916.03, -1731.39, -14044.85, 0.04, 0.76, 0.72
223, 33840.65, 42620.42, 22090.52, 2294.74, 4186.48, 8061.18, -1583.26, -13905.04, 0.04, 0.76, 0.72
224, 33714.32, 42656.07, 21912.15, 2115.97, 4021.03, 8026.24, -1578.44, -13869.26, 0.04, 0.76, 0.72
225, 33572.52, 42654.30, 21774.40, 1982.49, 3884.24, 7871.79, -1726.92, -14011.01, 0.04, 0.76, 0.72
226, 33676.61, 42615.75, 21926.79, 2138.55, 4029.53, 7889.09, -1748.58, -14060.97, 0.04, 0.76, 0.72
227, 33819.84, 42605.62, 22075.65, 2286.18, 4178.46, 8033.40, -1612.63, -13942.64, 0.04, 0.76, 0.72
228, 33755.34, 42658.19, 21965.46, 2181.51, 4076.91, 8063.97, -1547.63, -13850.57, 0.04, 0.76, 0.72
229, 33600.62, 42675.69, 21786.76, 2009.85, 3899.89, 7911.33, -1686.46, -13971.32, 0.04, 0.76, 0.72
230, 33672.43, 42647.04, 21886.74, 2111.84, 3991.31, 7874.05, -1755.86, -14062.73, 0.05, 0.75, 0.72
231, 33830.08, 42622.76, 22065.02, 2290.11, 4169.40, 8015.22, -1635.16, -13961.28, 0.05, 0.75, 0.72
232, 33784.32, 42655.04, 21979.10, 2210.07, 4091.67, 8068.26, -1550.56, -13857.52, 0.05, 0.75, 0.72
233, 33612.08, 42680.83, 21779.63, 2015.70, 3898.88, 7933.17, -1660.02, -13944.65, 0.05, 0.75, 0.72
234, 33634.97, 42654.10, 21834.88, 2071.05, 3946.56, 7871.01, -1751.62, -14044.05, 0.05, 0.75, 0.72
235, 33819.51, 42633.11, 22047.42, 2285.91, 4153.92, 8009.52, -1648.06, -13962.46, 0.05, 0.75, 0.72
236, 33816.02, 42653.14, 22014.84, 2258.22, 4132.12, 8100.47, -1535.07, -13840.22, 0.05, 0.75, 0.72
237, 33651.87, 42692.64, 21814.32, 2061.08, 3939.18, 7990.03, -1614.73, -13896.35, 0.05, 0.75, 0.72
238, 33621.76, 42668.76, 21805.87, 2051.73, 3923.49, 7874.03, -1743.44, -14040.83, 0.05, 0.75, 0.72
239, 33788.80, 42632.53, 22011.39, 2257.66, 4119.20, 7968.82, -1677.43, -14007.50, 0.05, 0.75, 0.72
240, 33853.46, 42660.67, 22051.60, 2299.01, 4165.60, 8096.49, -1532.08, -13858.15, 0.05, 0.75, 0.72
241, 33686.92, 42694.16, 21836.25, 2085.95, 3957.13, 8004.79, -1597.41, -13891.21, 0.06, 0.76, 0.72
242, 33612.13, 42681.10, 21775.54, 2028.22, 3893.41, 7870.07, -1745.58, -14038.97, 0.06, 0.76, 0.72
243, 33776.03, 42653.34, 21981.51, 2230.06, 4092.49, 7945.84, -1700.05, -14028.31, 0.06, 0.76, 0.72
244, 33860.75, 42659.55, 22061.89, 2309.23, 4175.22, 8084.09, -1551.81, -13885.71, 0.06, 0.76, 0.72
245, 33713.89, 42696.59, 21871.16, 2124.89, 3993.88, 8031.05, -1567.26, -13876.88, 0.06, 0.76, 0.72
246, 33596.19, 42687.49, 21752.34, 2008.51, 3871.30, 7876.06, -1724.26, -14026.43, 0.05, 0.76, 0.72
247, 33715.93, 42642.34, 21918.34, 2172.92, 4028.21, 7902.64, -1739.50, -14064.25, 0.05, 0.76, 0.72
248, 33837.97, 42638.03, 22043.09, 2299.73, 4153.80, 8053.76, -1593.90, -13924.00, 0.05, 0.76, 0.72
249, 33724.76, 42677.14, 21888.59, 2144.52, 4006.80, 8037.22, -1571.55, -13875.60, 0.05, 0.76, 0.72
250, 33588.10, 42691.90, 21747.22, 1999.45, 3862.36, 7885.20, -1711.76, -14009.38, 0.05, 0.76, 0.72
251, 33678.87, 42654.79, 21874.38, 2125.07, 3981.58, 7865.53, -1764.65, -14093.51, 0.05, 0.77, 0.72
252, 33837.03, 42643.64, 22045.41, 2298.41, 4155.26, 8025.10, -1618.18, -13965.48, 0.05, 0.77, 0.72
253, 33761.66, 42675.47, 21930.97, 2182.85, 4049.78, 8057.20, -1551.77, -13876.77, 0.05, 0.77, 0.72
254, 33596.53, 42686.60, 21741.63, 1992.77, 3861.78, 7903.82, -1686.30, -13987.39, 0.05, 0.77, 0.72
255, 33650.66, 42655.06, 21831.73, 2083.16, 3943.94, 7855.34, -1763.17, -14082.00, 0.05, 0.77, 0.72
0, 33824.63, 42637.20, 22028.65, 2279.74, 4135.88, 8000.34, -1639.05, -13982.83, 0.05, 0.77, 0.72
1, 33804.75, 42671.76, 21969.95, 2224.29, 4088.04, 8073.34, -1538.05, -13865.61, 0.05, 0.77, 0.72
2, 33629.96, 42698.38, 21771.47, 2027.03, 3891.77, 7942.78, -1646.00, -13946.06, 0.05, 0.77, 0.72
3, 33639.57, 42676.39, 21809.29, 2065.06, 3924.70, 7864.93, -1744.69, -14064.75, 0.05, 0.77, 0.72
4, 33805.71, 42640.15, 22007.59, 2260.10, 4118.67, 7978.03, -1655.33, -14004.46, 0.05, 0.77, 0.72
5, 33828.61, 42663.18, 22000.31, 2253.50, 4118.17, 8083.08, -1533.73, -13868.32, 0.05, 0.76, 0.72
6, 33650.08, 42690.49, 21781.26, 2037.54, 3902.37, 7967.93, -1618.87, -13924.71, 0.05, 0.76, 0.72
7, 33600.91, 42665.84, 21753.63, 2010.27, 3865.69, 7841.89, -1762.03, -14073.46, 0.05, 0.76, 0.72
8, 33773.80, 42633.40, 21963.85, 2219.64, 4070.12, 7938.33, -1702.33, -14041.19, 0.05, 0.76, 0.72
9, 33844.94, 42649.86, 22014.01, 2271.67, 4124.77, 8067.75, -1562.61, -13893.64, 0.05, 0.76, 0.72
10, 33692.13, 42693.08, 21818.41, 2077.13, 3936.34, 7993.92, -1593.50, -13895.61, 0.05, 0.75, 0.72
11, 33603.48, 42680.74, 21739.02, 1997.87, 3851.97, 7847.25, -1739.28, -14043.87, 0.05, 0.75, 0.72
12, 33745.30, 42639.32, 21921.67, 2183.34, 4025.66, 7903.04, -1724.95, -14058.15, 0.05, 0.75, 0.72
13, 33855.83, 42650.10, 22032.70, 2293.38, 4141.20, 8064.58, -1562.59, -13899.12, 0.05, 0.75, 0.72
14, 33714.99, 42682.13, 21853.84, 2114.21, 3970.85, 8027.18, -1563.55, -13866.60, 0.05, 0.75, 0.72
15, 33591.12, 42679.74, 21724.78, 1985.97, 3838.33, 7870.90, -1720.77, -14013.56, 0.05, 0.75, 0.72
16, 33693.67, 42631.32, 21871.14, 2126.97, 3975.62, 7870.18, -1751.42, -14077.78, 0.05, 0.76, 0.73
17, 33835.60, 42628.35, 22023.35, 2271.47, 4123.49, 8022.42, -1604.54, -13944.90, 0.05, 0.76, 0.73
18, 33753.66, 42674.75, 21897.80, 2148.02, 4005.39, 8042.14, -1552.35, -13859.76, 0.05, 0.76, 0.73
19, 33592.46, 42677.95, 21733.56, 1986.40, 3844.52, 7891.57, -1686.91, -13980.77, 0.05, 0.76, 0.73
20, 33657.28, 42629.71, 21849.28, 2098.16, 3948.66, 7865.62, -1748.17, -14067.14, 0.05, 0.76, 0.73
21, 33796.82, 42598.63, 22022.88, 2271.14, 4120.63, 8013.77, -1617.01, -13951.00, 0.06, 0.75, 0.72
22, 33717.40, 42608.59, 21917.83, 2167.60, 4025.01, 8048.62, -1549.85, -13861.52, 0.06, 0.75, 0.72
23, 33524.35, 42607.21, 21712.62, 1965.46, 3823.06, 7890.14, -1687.80, -13980.81, 0.06, 0.75, 0.72
24, 33525.67, 42543.10, 21779.52, 2034.19, 3888.62, 7829.99, -1777.52, -14091.08, 0.06, 0.75, 0.72
25, 33663.47, 42486.15, 21974.40, 2231.80, 4085.21, 7968.55, -1659.82, -14001.94, 0.06, 0.75, 0.72
26, 33619.05, 42485.21, 21929.54, 2190.31, 4049.91, 8049.06, -1548.33, -13876.83, 0.05, 0.76, 0.72
27, 33404.23, 42477.16, 21723.15, 1988.50, 3851.00, 7927.96, -1641.04, -13943.17, 0.05, 0.76, 0.72
28, 33326.98, 42399.29, 21721.54, 1987.81, 3847.83, 7825.52, -1766.21, -14081.42, 0.05, 0.76, 0.72
29, 33467.13, 42339.32, 21930.21, 2193.42, 4056.19, 7942.60, -1679.89, -14017.87, 0.05, 0.76, 0.72
30, 33476.09, 42333.31, 21940.58, 2207.19, 4077.61, 8060.87, -1544.46, -13871.18, 0.05, 0.76, 0.72
31, 33282.66, 42343.93, 21721.11, 1991.14, 3865.26, 7951.41, -1620.93, -13918.81, 0.05, 0.76, 0.72
32, 33226.61, 42323.47, 21680.99, 1949.88, 3817.66, 7822.64, -1762.39, -14063.69, 0.05, 0.76, 0.72
33, 33373.37, 42274.95, 21875.00, 2142.91, 4005.57, 7896.69, -1719.16, -14048.25, 0.05, 0.76, 0.72
34, 33439.95, 42274.66, 21935.42, 2205.22, 4074.07, 8032.08, -1572.31, -13906.27, 0.05, 0.76, 0.72
35, 33291.54, 42307.83, 21738.93, 2008.84, 3884.13, 7963.43, -1603.60, -13913.56, 0.05, 0.76, 0.72
36, 33195.94, 42301.19, 21651.98, 1917.33, 3792.93, 7816.02, -1753.85, -14067.27, 0.05, 0.77, 0.72
37, 33325.40, 42256.71, 21824.82, 2091.25, 3958.29, 7861.47, -1747.82, -14083.12, 0.05, 0.77, 0.72
38, 33450.97, 42266.25, 21947.94, 2212.06, 4078.43, 8017.66, -1591.60, -13931.93, 0.05, 0.77, 0.72
39, 33337.92, 42312.99, 21778.02, 2042.61, 3914.57, 7988.60, -1582.75, -13898.47, 0.05, 0.77, 0.72
40, 33214.67, 42328.12, 21639.48, 1908.19, 3772.82, 7837.75, -1736.31, -14036.34, 0.05, 0.77, 0.72
41, 33338.83, 42307.18, 21801.85, 2068.27, 3923.16, 7853.93, -1757.05, -14077.22, 0.05, 0.77, 0.72
42, 33506.79, 42315.41, 21958.00, 2225.92, 4082.52, 8005.68, -1611.36, -13946.48, 0.06, 0.77, 0.72
43, 33427.61, 42360.93, 21820.51, 2094.58, 3957.13, 8015.34, -1563.93, -13873.33, 0.06, 0.77, 0.72
44, 33275.58, 42386.66, 21647.51, 1919.66, 3781.20, 7864.04, -1705.26, -13996.86, 0.06, 0.77, 0.72
45, 33349.70, 42365.70, 21740.04, 2013.02, 3863.50, 7813.59, -1786.51, -14101.63, 0.06, 0.77, 0.72
46, 33534.19, 42360.71, 21932.83, 2202.23, 4055.08, 7959.19, -1659.10, -13994.49, 0.06, 0.77, 0.72
47, 33516.64, 42413.71, 21868.57, 2140.22, 3996.67, 8027.61, -1561.22, -13879.27, 0.05, 0.76, 0.71
48, 33361.16, 42451.86, 21667.94, 1940.98, 3794.50, 7883.35, -1685.25, -13979.58, 0.05, 0.76, 0.71
49, 33394.82, 42435.28, 21719.19, 1990.49, 3836.86, 7806.97, -1788.61, -14094.88, 0.05, 0.76, 0.71
50, 33588.52, 42425.53, 21933.97, 2206.36, 4050.20, 7948.91, -1672.40, -14002.03, 0.05, 0.76, 0.71
51, 33608.15, 42463.20, 21907.82, 2183.52, 4029.75, 8039.99, -1554.14, -13872.52, 0.05, 0.76, 0.71
52, 33444.22, 42503.18, 21695.47, 1971.40, 3820.38, 7913.48, -1650.39, -13943.73, 0.05, 0.76, 0.72
53, 33422.96, 42491.92, 21689.17, 1964.99, 3802.84, 7801.70, -1783.60, -14088.77, 0.05, 0.76, 0.72
54, 33606.67, 42470.13, 21896.60, 2173.24, 4000.85, 7905.95, -1712.88, -14049.10, 0.05, 0.76, 0.72
55, 33673.35, 42501.06, 21931.46, 2210.77, 4041.04, 8030.47, -1570.43, -13902.49, 0.05, 0.76, 0.72
56, 33515.55, 42547.48, 21723.28, 2003.81, 3840.23, 7935.94, -1628.88, -13934.12, 0.05, 0.76, 0.72
57, 33461.54, 42552.11, 21673.93, 1953.94, 3786.79, 7809.65, -1764.47, -14075.32, 0.05, 0.76, 0.72
58, 33619.86, 42520.79, 21865.19, 2148.27, 3969.69, 7878.56, -1730.23, -14069.64, 0.05, 0.76, 0.72
59, 33729.59, 42545.56, 21963.85, 2244.67, 4067.19, 8031.16, -1575.91, -13916.46, 0.05, 0.76, 0.72
60, 33592.93, 42592.32, 21776.90, 2059.53, 3885.54, 7975.79, -1596.85, -13907.66, 0.05, 0.76, 0.72
61, 33486.45, 42597.86, 21664.40, 1950.12, 3773.24, 7824.83, -1747.93, -14053.99, 0.05, 0.76, 0.72
62, 33624.15, 42569.79, 21837.74, 2123.37, 3941.06, 7861.29, -1746.32, -14083.43, 0.04, 0.76, 0.73
63, 33762.22, 42576.59, 21975.12, 2256.32, 4076.42, 8015.02, -1594.13, -13943.82, 0.04, 0.76, 0.73
64, 33655.78, 42619.30, 21824.87, 2106.03, 3933.82, 8004.63, -1566.50, -13888.90, 0.04, 0.76, 0.73
65, 33509.40, 42627.37, 21668.21, 1951.15, 3775.10, 7844.25, -1720.23, -14028.22, 0.04, 0.76, 0.73
66, 33601.55, 42590.78, 21796.93, 2081.08, 3894.48, 7832.01, -1769.83, -14102.59, 0.04, 0.76, 0.73
67, 33763.47, 42583.96, 21969.10, 2253.86, 4067.46, 7989.34, -1623.85, -13974.13, 0.05, 0.76, 0.72
68, 33691.32, 42621.07, 21851.94, 2139.91, 3959.05, 8017.55, -1565.11, -13888.81, 0.05, 0.76, 0.72
69, 33524.13, 42633.56, 21659.55, 1947.13, 3769.20, 7856.03, -1707.63, -14011.97, 0.05, 0.76, 0.72
70, 33580.01, 42607.18, 21747.93, 2032.80, 3848.55, 7806.70, -1788.27, -14113.81, 0.05, 0.76, 0.72
71, 33756.65, 42594.80, 21946.42, 2230.44, 4041.96, 7951.57, -1665.47, -14015.53, 0.05, 0.76, 0.72
72, 33736.02, 42629.07, 21891.43, 2178.20, 3994.55, 8024.32, -1565.25, -13894.76, 0.05, 0.76, 0.72
73, 33562.42, 42654.41, 21684.75, 1973.97, 3791.01, 7892.94, -1673.30, -13970.89, 0.05, 0.76, 0.72
74, 33574.29, 42635.35, 21723.57, 2012.15, 3820.25, 7813.48, -1781.17, -14090.58, 0.05, 0.76, 0.72
75, 33745.86, 42602.42, 21925.67, 2215.91, 4018.64, 7935.49, -1688.20, -14021.45, 0.05, 0.76, 0.72
76, 33765.15, 42625.69, 21920.47, 2207.91, 4015.92, 8030.40, -1567.17, -13891.77, 0.05, 0.76, 0.72
77, 33602.54, 42667.45, 21719.19, 2006.58, 3817.36, 7922.22, -1638.92, -13944.67, 0.05, 0.76, 0.72
78, 33564.36, 42652.27, 21703.95, 1988.03, 3793.31, 7804.83, -1768.98, -14085.80, 0.05, 0.76, 0.72
79, 33733.09, 42618.36, 21910.56, 2193.69, 3993.32, 7902.21, -1705.71, -14049.48, 0.05, 0.76, 0.72
80, 33789.87, 42626.34, 21946.60, 2233.10, 4038.20, 8021.88, -1572.09, -13912.64, 0.05, 0.76, 0.72
81, 33629.05, 42659.00, 21738.61, 2028.71, 3839.83, 7941.49, -1619.52, -13930.63, 0.05, 0.76, 0.72
82, 33536.91, 42644.40, 21658.59, 1948.92, 3753.60, 7799.73, -1771.31, -14076.23, 0.05, 0.76, 0.72
83, 33690.18, 42613.55, 21858.53, 2145.86, 3945.60, 7863.10, -1737.04, -14072.03, 0.05, 0.77, 0.72
84, 33798.09, 42618.34, 21956.41, 2243.69, 4048.79, 8007.65, -1586.44, -13928.15, 0.05, 0.77, 0.72
85, 33672.59, 42659.93, 21781.33, 2070.75, 3879.68, 7972.82, -1589.68, -13903.97, 0.05, 0.77, 0.72
86, 33553.23, 42662.86, 21659.94, 1952.34, 3754.11, 7826.66, -1735.81, -14043.06, 0.05, 0.77, 0.72
87, 33667.96, 42625.36, 21816.73, 2108.57, 3901.90, 7839.85, -1753.20, -14092.10, 0.05, 0.77, 0.72
88, 33810.01, 42624.95, 21965.57, 2257.84, 4053.67, 8001.99, -1594.77, -13946.59, 0.05, 0.76, 0.72
89, 33712.82, 42661.99, 21825.11, 2119.19, 3920.70, 8004.18, -1555.21, -13882.58, 0.05, 0.76, 0.72
90, 33564.03, 42673.50, 21661.21, 1956.09, 3756.50, 7851.77, -1695.56, -14009.71, 0.05, 0.76, 0.72
91, 33630.75, 42628.60, 21769.01, 2061.70, 3855.63, 7818.39, -1760.13, -14096.95, 0.05, 0.76, 0.72
92, 33800.20, 42617.49, 21955.80, 2245.10, 4038.54, 7973.54, -1618.20, -13977.24, 0.05, 0.76, 0.72
93, 33753.77, 42656.70, 21864.65, 2153.34, 3955.45, 8019.31, -1538.45, -13878.40, 0.05, 0.76, 0.72
94, 33590.94, 42682.40, 21673.68, 1963.73, 3767.70, 7874.12, -1661.99, -13985.06, 0.05, 0.76, 0.72
95, 33609.80, 42639.71, 21726.36, 2017.51, 3814.30, 7799.28, -1763.87, -14101.98, 0.05, 0.76, 0.72
96, 33778.74, 42613.51, 21921.94, 2214.52, 4007.65, 7931.92, -1654.99, -14020.11, 0.05, 0.76, 0.72
97, 33779.43, 42650.28, 21889.49, 2184.84, 3983.17, 8019.36, -1540.97, -13896.95, 0.05, 0.76, 0.72
98, 33606.27, 42680.43, 21684.16, 1983.07, 3780.98, 7892.38, -1642.79, -13969.88, 0.05, 0.76, 0.72
99, 33583.18, 42647.29, 21689.64, 1989.06, 3778.16, 7784.17, -1771.33, -14109.69, 0.04, 0.76, 0.72
100, 33757.19, 42616.57, 21904.11, 2200.89, 3987.04, 7900.58, -1681.83, -14046.42, 0.04, 0.76, 0.72
101, 33785.11, 42633.71, 21913.16, 2210.30, 4002.59, 8013.21, -1549.78, -13909.09, 0.04, 0.76, 0.72
102, 33616.64, 42670.04, 21710.76, 2009.71, 3805.63, 7920.54, -1609.62, -13941.39, 0.04, 0.76, 0.72
103, 33555.71, 42652.07, 21666.37, 1965.19, 3756.34, 7794.75, -1746.83, -14080.53, 0.04, 0.76, 0.72
104, 33719.44, 42620.77, 21868.99, 2165.95, 3951.39, 7879.19, -1698.29, -14060.39, 0.04, 0.76, 0.72
105, 33801.78, 42633.85, 21936.56, 2234.30, 4022.91, 8017.37, -1556.04, -13920.93, 0.04, 0.76, 0.72
106, 33651.67, 42673.14, 21740.80, 2041.43, 3834.24, 7956.44, -1588.54, -13917.29, 0.04, 0.76, 0.72
107, 33557.21, 42673.70, 21651.22, 1952.87, 3740.30, 7817.95, -1732.53, -14055.83, 0.04, 0.76, 0.72
108, 33688.77, 42632.42, 21825.94, 2128.06, 3908.90, 7855.65, -1727.05, -14079.61, 0.04, 0.76, 0.72
109, 33810.12, 42636.22, 21941.43, 2245.97, 4027.47, 8004.92, -1576.07, -13933.41, 0.05, 0.75, 0.72
110, 33699.84, 42686.64, 21785.71, 2089.80, 3877.54, 7987.82, -1557.67, -13887.38, 0.05, 0.75, 0.72
111, 33569.35, 42694.71, 21651.13, 1955.29, 3741.61, 7834.58, -1701.77, -14023.39, 0.05, 0.75, 0.72
112, 33661.52, 42643.95, 21782.58, 2086.40, 3865.85, 7820.25, -1742.41, -14094.83, 0.05, 0.75, 0.72
113, 33810.57, 42637.25, 21938.71, 2244.05, 4024.01, 7970.68, -1595.91, -13963.40, 0.05, 0.75, 0.72
114, 33720.69, 42669.77, 21810.81, 2118.68, 3902.50, 7988.07, -1541.40, -13881.93, 0.05, 0.76, 0.72
115, 33561.19, 42682.06, 21633.78, 1943.98, 3720.72, 7830.04, -1689.28, -14010.12, 0.05, 0.76, 0.72
116, 33638.17, 42657.25, 21743.33, 2053.57, 3819.47, 7797.76, -1753.61, -14093.40, 0.05, 0.76, 0.72
117, 33800.06, 42635.14, 21926.64, 2232.45, 4000.74, 7941.19, -1626.40, -13982.00, 0.05, 0.76, 0.72
118, 33768.32, 42674.91, 21856.99, 2159.33, 3936.52, 8001.46, -1536.66, -13870.40, 0.05, 0.76, 0.72
119, 33599.68, 42700.10, 21662.68, 1964.05, 3743.45, 7864.46, -1651.15, -13958.91, 0.05, 0.76, 0.72
120, 33620.89, 42673.37, 21720.33, 2016.37, 3791.75, 7794.81, -1749.74, -14066.09, 0.05, 0.76, 0.72
121, 33788.64, 42639.77, 21920.51, 2208.44, 3986.99, 7921.79, -1648.98, -13983.09, 0.05, 0.76, 0.72
122, 33801.87, 42673.12, 21907.53, 2193.62, 3978.74, 8021.06, -1527.07, -13851.42, 0.05, 0.76, 0.72
123, 33629.07, 42702.80, 21698.16, 1982.96, 3772.59, 7899.04, -1615.29, -13912.22, 0.05, 0.76, 0.72
124, 33592.57, 42676.00, 21692.35, 1972.50, 3757.57, 7788.71, -1740.71, -14038.55, 0.05, 0.76, 0.72
125, 33755.11, 42638.10, 21894.43, 2171.90, 3953.13, 7885.23, -1677.68, -13998.67, 0.05, 0.76, 0.72
126, 33814.86, 42661.48, 21934.82, 2208.02, 3999.00, 8010.44, -1537.24, -13853.86, 0.05, 0.76, 0.72
127, 33643.53, 42691.68, 21721.87, 1995.59, 3791.39, 7911.80, -1597.64, -13888.05, 0.05, 0.76, 0.72
128, 33570.55, 42679.07, 21666.24, 1937.92, 3727.44, 7770.92, -1741.76, -14037.21, 0.05, 0.76, 0.72
129, 33734.64, 42653.34, 21872.57, 2144.49, 3926.71, 7848.73, -1694.42, -14019.64, 0.05, 0.76, 0.72
130, 33823.78, 42663.42, 21957.06, 2231.04, 4013.64, 7993.83, -1545.00, -13869.73, 0.04, 0.76, 0.71
131, 33682.36, 42702.85, 21770.73, 2051.73, 3834.13, 7947.30, -1560.46, -13853.63, 0.04, 0.76, 0.71
132, 33575.54, 42706.27, 21666.64, 1950.44, 3726.64, 7799.93, -1703.90, -13998.09, 0.04, 0.76, 0.71
133, 33705.11, 42671.11, 21842.66, 2123.26, 3895.19, 7835.69, -1696.41, -14018.95, 0.04, 0.76, 0.71
134, 33838.55, 42671.78, 21978.22, 2256.59, 4033.35, 7993.50, -1538.60, -13869.41, 0.04, 0.76, 0.71
135, 33725.25, 42703.39, 21817.85, 2098.43, 3881.02, 7975.26, -1522.80, -13825.16, 0.04, 0.75, 0.72
136, 33580.12, 42707.84, 21664.49, 1944.38, 3725.86, 7824.38, -1669.68, -13957.08, 0.04, 0.75, 0.72
137, 33654.02, 42660.36, 21786.11, 2062.78, 3840.07, 7801.05, -1719.99, -14038.77, 0.04, 0.75, 0.72
138, 33812.85, 42654.21, 21959.67, 2239.56, 4014.26, 7960.86, -1566.86, -13905.38, 0.04, 0.75, 0.72
139, 33745.01, 42689.50, 21847.78, 2131.37, 3909.63, 7995.42, -1506.17, -13817.54, 0.04, 0.75, 0.72
140, 33589.20, 42711.81, 21670.08, 1957.59, 3735.33, 7851.63, -1635.28, -13927.33, 0.05, 0.75, 0.72
141, 33625.89, 42672.79, 21739.28, 2032.02, 3797.36, 7789.56, -1725.80, -14037.59, 0.05, 0.75, 0.72
142, 33796.53, 42653.14, 21931.62, 2226.90, 3987.06, 7929.26, -1607.76, -13941.86, 0.05, 0.75, 0.72
143, 33781.96, 42693.26, 21880.55, 2181.02, 3946.78, 8012.83, -1499.78, -13811.68, 0.05, 0.75, 0.72
144, 33612.30, 42722.88, 21682.11, 1984.19, 3750.58, 7883.37, -1608.41, -13887.32, 0.05, 0.75, 0.72
145, 33618.65, 42699.48, 21715.43, 2017.18, 3774.67, 7795.04, -1720.77, -14014.72, 0.06, 0.76, 0.72
146, 33787.25, 42664.29, 21911.95, 2214.12, 3967.64, 7908.78, -1632.37, -13954.69, 0.06, 0.76, 0.72
147, 33803.05, 42680.68, 21899.23, 2203.39, 3962.03, 8005.55, -1515.56, -13829.60, 0.06, 0.76, 0.72
148, 33640.22, 42723.05, 21698.16, 2006.27, 3766.02, 7903.26, -1589.28, -13877.68, 0.06, 0.76, 0.72
149, 33601.80, 42710.25, 21682.60, 1992.48, 3743.96, 7795.24, -1717.31, -14011.50, 0.06, 0.76, 0.72
150, 33762.62, 42674.04, 21885.22, 2195.25, 3938.49, 7885.00, -1656.96, -13981.62, 0.07, 0.76, 0.73
151, 33822.64, 42689.53, 21923.75, 2237.43, 3980.06, 8001.79, -1527.94, -13850.79, 0.07, 0.76, 0.73
152, 33667.96, 42728.11, 21723.99, 2040.38, 3787.23, 7925.82, -1572.47, -13864.03, 0.07, 0.76, 0.73
153, 33572.72, 42707.90, 21652.22, 1964.56, 3710.30, 7787.15, -1715.05, -14010.25, 0.07, 0.76, 0.73
154, 33715.41, 42667.13, 21843.91, 2153.17, 3895.98, 7838.96, -1689.37, -14019.28, 0.07, 0.76, 0.73
155, 33822.97, 42673.70, 21948.18, 2256.97, 4005.23, 7991.22, -1530.16, -13864.18, 0.07, 0.77, 0.72
156, 33688.93, 42709.91, 21769.50, 2081.35, 3836.19, 7953.82, -1533.69, -13837.67, 0.07, 0.77, 0.72
157, 33566.93, 42708.28, 21642.93, 1955.02, 3705.99, 7802.12, -1690.82, -13983.45, 0.07, 0.77, 0.72
158, 33689.58, 42672.23, 21804.30, 2114.34, 3855.25, 7823.51, -1708.21, -14025.88, 0.07, 0.77, 0.72
159, 33824.71, 42668.14, 21949.35, 2255.13, 3995.60, 7976.09, -1561.09, -13889.35, 0.07, 0.77, 0.72
160, 33724.78, 42702.69, 21811.05, 2114.52, 3862.74, 7977.63, -1523.94, -13828.98, 0.07, 0.77, 0.72
161, 33569.77, 42711.05, 21643.24, 1949.63, 3695.23, 7820.41, -1670.44, -13964.79, 0.06, 0.77, 0.73
162, 33649.28, 42675.98, 21764.34, 2065.61, 3804.67, 7795.37, -1726.36, -14044.20, 0.06, 0.77, 0.73
163, 33815.24, 42664.88, 21948.21, 2246.51, 3986.79, 7952.15, -1582.32, -13916.46, 0.06, 0.77, 0.73
164, 33762.04, 42700.28, 21851.76, 2153.03, 3900.58, 7996.92, -1504.97, -13817.94, 0.06, 0.77, 0.73
165, 33591.92, 42717.89, 21656.85, 1960.23, 3706.57, 7847.90, -1638.25, -13927.86, 0.06, 0.77, 0.73
166, 33621.00, 42683.94, 21720.98, 2024.38, 3760.68, 7775.48, -1735.55, -14045.86, 0.05, 0.77, 0.72
167, 33797.91, 42663.20, 21926.12, 2229.30, 3962.52, 7916.54, -1616.01, -13954.80, 0.05, 0.77, 0.72
168, 33791.81, 42696.05, 21886.51, 2192.13, 3933.50, 7998.79, -1508.14, -13834.25, 0.05, 0.77, 0.72
169, 33624.84, 42725.34, 21680.54, 1987.85, 3729.90, 7875.08, -1610.42, -13911.35, 0.05, 0.77, 0.72
170, 33603.59, 42694.47, 21684.12, 1993.62, 3724.65, 7770.99, -1738.21, -14047.22, 0.05, 0.77, 0.72
171, 33774.18, 42661.43, 21890.83, 2199.39, 3928.61, 7881.09, -1647.90, -13991.41, 0.05, 0.76, 0.72
172, 33808.93, 42680.10, 21900.55, 2208.51, 3945.91, 7987.24, -1513.37, -13858.33, 0.05, 0.76, 0.72
173, 33650.59, 42718.21, 21697.44, 2008.77, 3749.97, 7894.39, -1573.14, -13887.79, 0.05, 0.76, 0.72
174, 33601.09, 42704.88, 21660.36, 1972.56, 3707.51, 7777.02, -1704.81, -14020.96, 0.05, 0.76, 0.72
175, 33757.26, 42664.85, 21855.51, 2167.56, 3898.66, 7857.38, -1655.19, -13997.60, 0.05, 0.76, 0.72
176, 33847.60, 42686.91, 21929.34, 2241.37, 3979.15, 7998.55, -1502.62, -13841.76, 0.05, 0.76, 0.72
177, 33690.18, 42717.16, 21722.68, 2035.08, 3781.54, 7924.94, -1542.52, -13851.53, 0.05, 0.76, 0.72
178, 33590.22, 42708.75, 21629.51, 1940.76, 3685.62, 7780.11, -1691.60, -13998.99, 0.05, 0.76, 0.72
179, 33720.24, 42664.58, 21801.71, 2112.11, 3850.49, 7818.48, -1687.96, -14021.07, 0.05, 0.76, 0.72
180, 33837.59, 42668.18, 21923.91, 2234.50, 3975.66, 7973.43, -1531.65, -13870.17, 0.05, 0.76, 0.72
181, 33716.89, 42708.10, 21757.10, 2071.43, 3817.14, 7948.08, -1518.69, -13832.47, 0.05, 0.76, 0.72
182, 33590.83, 42715.52, 21622.59, 1939.21, 3682.20, 7798.52, -1665.41, -13969.35, 0.05, 0.76, 0.72
183, 33682.09, 42667.42, 21757.70, 2075.67, 3807.33, 7793.92, -1701.12, -14029.99, 0.05, 0.76, 0.72
184, 33822.52, 42657.32, 21909.87, 2228.38, 3959.57, 7941.26, -1560.22, -13902.61, 0.05, 0.76, 0.72
185, 33749.01, 42706.67, 21799.19, 2117.87, 3857.53, 7966.83, -1496.65, -13816.73, 0.05, 0.76, 0.72
186, 33589.51, 42721.38, 21622.83, 1941.56, 3683.39, 7812.29, -1636.53, -13940.47, 0.05, 0.76, 0.72
187, 33647.78, 42684.01, 21719.97, 2037.07, 3770.99, 7768.33, -1716.77, -14039.82, 0.06, 0.77, 0.72
188, 33812.55, 42666.77, 21909.18, 2223.26, 3956.24, 7920.77, -1584.76, -13928.69, 0.06, 0.77, 0.72
189, 33770.11, 42700.79, 21833.16, 2148.02, 3887.62, 7979.93, -1497.01, -13819.95, 0.06, 0.77, 0.72
190, 33588.95, 42716.48, 21626.29, 1946.68, 3682.81, 7832.74, -1620.32, -13915.64, 0.06, 0.77, 0.72
191, 33610.41, 42690.78, 21680.86, 2001.17, 3727.40, 7755.65, -1720.55, -14031.62, 0.06, 0.77, 0.72
192, 33793.04, 42668.88, 21892.95, 2209.67, 3934.49, 7891.26, -1610.47, -13948.20, 0.05, 0.76, 0.71
193, 33799.75, 42695.92, 21870.96, 2189.60, 3917.79, 7985.25, -1494.57, -13817.94, 0.05, 0.76, 0.71
194, 33625.43, 42726.99, 21661.75, 1980.39, 3713.16, 7866.61, -1588.11, -13879.78, 0.05, 0.76, 0.71
195, 33591.63, 42698.96, 21645.32, 1965.77, 3691.59, 7749.89, -1722.51, -14021.99, 0.05, 0.76, 0.71
196, 33756.48, 42662.39, 21849.43, 2167.49, 3889.16, 7847.88, -1650.61, -13982.60, 0.05, 0.76, 0.71
197, 33817.20, 42689.64, 21893.60, 2212.02, 3938.02, 7985.79, -1498.77, -13821.16, 0.05, 0.76, 0.72
198, 33655.78, 42726.57, 21689.26, 2009.44, 3740.63, 7898.06, -1553.54, -13849.36, 0.05, 0.76, 0.72
199, 33582.22, 42713.02, 21626.90, 1945.70, 3676.88, 7759.94, -1698.82, -14001.98, 0.05, 0.76, 0.72
200, 33740.52, 42680.86, 21824.09, 2144.49, 3867.72, 7832.56, -1656.85, -13986.87, 0.05, 0.76, 0.72
201, 33816.82, 42679.56, 21897.96, 2223.13, 3947.45, 7972.29, -1508.12, -13840.13, 0.05, 0.76, 0.72
202, 33667.89, 42712.02, 21710.34, 2041.99, 3770.09, 7922.98, -1523.34, -13825.04, 0.06, 0.75, 0.72
203, 33560.50, 42710.85, 21603.88, 1936.13, 3660.21, 7776.37, -1677.90, -13969.66, 0.06, 0.75, 0.72
204, 33696.80, 42678.66, 21779.49, 2108.78, 3825.77, 7807.55, -1676.31, -14000.24, 0.06, 0.75, 0.72
205, 33812.06, 42668.65, 21898.94, 2225.29, 3945.62, 7948.73, -1533.22, -13869.88, 0.06, 0.75, 0.72
206, 33705.29, 42710.85, 21748.76, 2075.99, 3804.07, 7940.14, -1508.79, -13820.87, 0.06, 0.75, 0.72
207, 33559.96, 42712.73, 21592.59, 1918.52, 3646.69, 7782.70, -1661.65, -13959.78, 0.06, 0.76, 0.71
208, 33648.96, 42676.65, 21722.50, 2047.53, 3768.93, 7765.73, -1709.26, -14035.98, 0.06, 0.76, 0.71
209, 33808.29, 42672.72, 21898.14, 2223.95, 3944.19, 7928.03, -1554.07, -13901.35, 0.06, 0.76, 0.71
210, 33727.35, 42700.97, 21780.23, 2108.06, 3835.49, 7957.31, -1494.15, -13816.64, 0.06, 0.76, 0.71
211, 33560.81, 42711.43, 21587.38, 1917.20, 3645.12, 7799.60, -1639.63, -13940.60, 0.06, 0.76, 0.71
212, 33618.09, 42684.86, 21681.33, 2010.38, 3726.68, 7753.08, -1716.86, -14036.72, 0.05, 0.76, 0.71
213, 33794.65, 42671.42, 21881.87, 2211.93, 3924.81, 7901.27, -1588.63, -13932.49, 0.05, 0.76, 0.71
214, 33775.96, 42705.15, 21818.77, 2152.20, 3873.07, 7971.91, -1491.51, -13819.66, 0.05, 0.76, 0.71
215, 33600.46, 42731.46, 21619.61, 1952.29, 3673.93, 7837.44, -1600.09, -13904.55, 0.05, 0.76, 0.71
216, 33599.77, 42703.81, 21648.00, 1983.07, 3694.70, 7747.81, -1709.10, -14031.89, 0.05, 0.76, 0.71
217, 33772.48, 42673.12, 21852.43, 2185.17, 3892.13, 7867.01, -1616.72, -13964.74, 0.05, 0.76, 0.71
218, 33785.58, 42692.08, 21843.64, 2178.11, 3890.63, 7967.86, -1493.95, -13828.11, 0.05, 0.76, 0.71
219, 33623.64, 42731.41, 21646.35, 1981.55, 3701.96, 7870.29, -1564.40, -13867.98, 0.05, 0.76, 0.71
220, 33582.24, 42713.24, 21627.19, 1959.26, 3674.38, 7749.30, -1695.25, -14011.28, 0.05, 0.76, 0.71
221, 33733.56, 42668.25, 21818.50, 2148.36, 3861.00, 7827.38, -1641.60, -13992.46, 0.05, 0.76, 0.71
222, 33799.03, 42681.23, 21867.36, 2195.66, 3914.51, 7958.32, -1498.93, -13846.15, 0.05, 0.76, 0.71
223, 33650.33, 42723.17, 21674.87, 2005.20, 3728.43, 7892.49, -1534.20, -13844.22, 0.05, 0.76, 0.72
224, 33560.81, 42709.73, 21593.13, 1924.22, 3643.11, 7745.59, -1684.49, -13992.19, 0.05, 0.76, 0.72
225, 33716.33, 42677.95, 21791.56, 2122.16, 3835.83, 7812.49, -1649.60, -13988.44, 0.05, 0.76, 0.72
226, 33818.55, 42679.89, 21883.54, 2215.39, 3931.52, 7955.90, -1502.53, -13846.57, 0.05, 0.76, 0.72
227, 33687.70, 42716.73, 21701.69, 2034.46, 3754.96, 7914.60, -1515.16, -13832.44, 0.05, 0.76, 0.72
228, 33561.84, 42710.07, 21571.87, 1906.25, 3620.13, 7760.10, -1671.78, -13977.86, 0.05, 0.75, 0.72
229, 33683.18, 42679.13, 21740.51, 2076.12, 3777.67, 7785.07, -1680.92, -14010.77, 0.05, 0.75, 0.72
230, 33813.29, 42672.25, 21879.18, 2219.10, 3920.83, 7935.16, -1531.90, -13872.52, 0.05, 0.75, 0.72
231, 33708.66, 42704.66, 21732.02, 2075.16, 3784.35, 7928.90, -1497.32, -13814.81, 0.05, 0.75, 0.72
232, 33561.10, 42716.37, 21571.76, 1914.45, 3622.57, 7772.55, -1639.57, -13947.69, 0.05, 0.75, 0.72
233, 33642.08, 42683.05, 21691.67, 2032.67, 3733.48, 7750.67, -1690.42, -14025.38, 0.04, 0.75, 0.72
234, 33805.31, 42670.55, 21872.25, 2215.59, 3915.31, 7906.55, -1548.51, -13899.34, 0.04, 0.75, 0.72
235, 33747.54, 42701.73, 21777.42, 2122.68, 3827.96, 7950.47, -1476.91, -13806.27, 0.04, 0.75, 0.72
236, 33586.42, 42723.48, 21590.51, 1935.37, 3643.58, 7807.02, -1600.03, -13911.55, 0.04, 0.75, 0.72
237, 33611.48, 42684.81, 21647.39, 1992.75, 3696.40, 7737.12, -1694.53, -14023.98, 0.04, 0.75, 0.72
238, 33783.97, 42663.69, 21852.47, 2198.34, 3898.17, 7887.77, -1574.01, -13921.69, 0.04, 0.75, 0.72
239, 33770.71, 42691.20, 21806.99, 2157.52, 3861.84, 7968.98, -1471.01, -13804.24, 0.04, 0.75, 0.72
240, 33602.07, 42718.00, 21598.29, 1953.79, 3658.06, 7840.05, -1573.07, -13882.22, 0.04, 0.75, 0.72
241, 33582.45, 42687.45, 21604.41, 1956.56, 3656.70, 7732.25, -1702.71, -14021.14, 0.04, 0.75, 0.72
242, 33754.78, 42655.75, 21814.61, 2162.15, 3861.35, 7845.73, -1618.02, -13967.02, 0.04, 0.75, 0.72
243, 33793.40, 42679.52, 21832.22, 2180.70, 3883.35, 7961.60, -1484.07, -13826.72, 0.04, 0.75, 0.72
244, 33636.45, 42721.27, 21635.24, 1985.93, 3691.46, 7875.01, -1542.87, -13853.14, 0.04, 0.75, 0.72
245, 33577.15, 42703.45, 21592.63, 1944.67, 3642.28, 7750.65, -1677.68, -13991.88, 0.04, 0.75, 0.72
246, 33725.16, 42659.11, 21780.79, 2131.31, 3822.62, 7820.81, -1638.29, -13976.97, 0.04, 0.75, 0.72
247, 33804.09, 42672.25, 21847.18, 2197.69, 3894.03, 7957.20, -1495.67, -13832.04, 0.04, 0.75, 0.72
248, 33660.03, 42712.02, 21659.24, 2011.90, 3712.98, 7899.13, -1523.87, -13831.59, 0.04, 0.75, 0.72
249, 33555.11, 42700.97, 21558.46, 1910.78, 3608.44, 7747.58, -1680.27, -13985.22, 0.05, 0.75, 0.72
250, 33693.22, 42664.76, 21739.82, 2090.80, 3781.24, 7793.96, -1669.43, -14004.31, 0.05, 0.75, 0.72
251, 33808.89, 42664.18, 21854.44, 2206.74, 3902.01, 7941.13, -1515.72, -13861.81, 0.05, 0.75, 0.72
252, 33690.76, 42702.89, 21688.90, 2042.52, 3746.38, 7918.35, -1505.66, -13818.70, 0.05, 0.75, 0.72
253, 33555.00, 42703.21, 21548.27, 1902.89, 3605.81, 7763.50, -1653.83, -13957.70, 0.05, 0.75, 0.72
254, 33664.25, 42670.57, 21703.52, 2056.11, 3751.09, 7775.41, -1673.05, -14006.45, 0.05, 0.76, 0.72
255, 33808.20, 42659.53, 21853.88, 2208.31, 3900.00, 7928.25, -1526.94, -13871.58, 0.05, 0.76, 0.72
0, 33722.72, 42693.93, 21723.01, 2079.29, 3775.66, 7939.61, -1485.21, -13801.89, 0.05, 0.76, 0.72
1, 33569.26, 42707.45, 21552.94, 1907.59, 3605.40, 7785.58, -1623.90, -13924.98, 0.05, 0.76, 0.72
2, 33634.75, 42674.33, 21655.13, 2009.87, 3698.90, 7746.27, -1690.48, -14018.21, 0.05, 0.76, 0.72
3, 33803.44, 42659.78, 21840.54, 2196.71, 3885.45, 7895.80, -1559.39, -13910.50, 0.05, 0.75, 0.72
4, 33756.92, 42685.26, 21757.34, 2116.67, 3811.71, 7949.40, -1479.37, -13809.29, 0.05, 0.75, 0.72
5, 33591.05, 42712.46, 21563.15, 1926.03, 3619.06, 7816.76, -1598.26, -13899.03, 0.05, 0.75, 0.72
6, 33612.84, 42685.59, 21614.61, 1976.63, 3660.79, 7738.78, -1700.95, -14016.49, 0.05, 0.75, 0.72
7, 33786.58, 42658.66, 21820.58, 2180.39, 3863.21, 7867.63, -1593.86, -13934.99, 0.05, 0.75, 0.72
8, 33788.66, 42679.47, 21794.83, 2155.60, 3845.48, 7960.77, -1477.47, -13803.30, 0.05, 0.75, 0.72
9, 33617.16, 42707.66, 21583.20, 1945.34, 3639.18, 7837.75, -1565.69, -13868.38, 0.05, 0.75, 0.72
10, 33590.40, 42688.23, 21580.88, 1940.71, 3627.80, 7731.58, -1687.44, -14000.57, 0.05, 0.75, 0.72
11, 33765.37, 42658.44, 21797.93, 2151.62, 3836.21, 7837.48, -1607.25, -13947.69, 0.05, 0.75, 0.72
12, 33818.08, 42677.21, 21826.43, 2181.57, 3869.89, 7955.39, -1476.06, -13810.05, 0.05, 0.75, 0.72
13, 33651.20, 42708.91, 21617.56, 1977.55, 3667.85, 7862.49, -1532.41, -13845.85, 0.04, 0.76, 0.72
14, 33577.32, 42696.21, 21558.62, 1918.85, 3603.86, 7728.63, -1672.47, -13989.78, 0.04, 0.76, 0.72
15, 33729.03, 42660.79, 21756.43, 2114.12, 3792.73, 7798.93, -1633.51, -13980.52, 0.04, 0.76, 0.72
16, 33819.62, 42668.72, 21846.88, 2208.26, 3888.15, 7952.10, -1475.46, -13823.23, 0.04, 0.76, 0.72
17, 33678.02, 42705.55, 21659.62, 2026.19, 3709.63, 7906.26, -1492.27, -13807.81, 0.04, 0.76, 0.72
18, 33568.95, 42701.91, 21552.15, 1917.18, 3598.92, 7758.36, -1639.88, -13951.67, 0.04, 0.76, 0.72
19, 33689.46, 42658.73, 21716.08, 2078.33, 3753.15, 7780.19, -1644.08, -13985.17, 0.05, 0.76, 0.72
20, 33814.97, 42657.50, 21843.44, 2208.60, 3881.36, 7931.31, -1497.72, -13846.95, 0.05, 0.76, 0.72
21, 33708.57, 42696.14, 21684.05, 2051.09, 3731.36, 7914.24, -1484.40, -13804.91, 0.05, 0.76, 0.72
22, 33591.95, 42719.52, 21536.66, 1902.83, 3582.18, 7761.58, -1631.65, -13939.42, 0.05, 0.76, 0.72
23, 33681.46, 42688.28, 21665.43, 2032.35, 3698.68, 7748.23, -1675.22, -14004.22, 0.05, 0.76, 0.72
24, 33813.11, 42663.15, 21833.18, 2203.88, 3866.70, 7903.20, -1527.61, -13873.44, 0.05, 0.75, 0.72
25, 33741.05, 42699.41, 21736.24, 2110.43, 3779.77, 7950.05, -1453.60, -13778.11, 0.05, 0.75, 0.72
26, 33574.44, 42717.02, 21556.92, 1933.16, 3601.74, 7807.71, -1580.85, -13884.63, 0.05, 0.75, 0.72
27, 33625.49, 42686.82, 21639.26, 2011.90, 3673.58, 7750.44, -1666.17, -13990.27, 0.05, 0.75, 0.72
28, 33791.43, 42664.41, 21826.34, 2197.33, 3858.72, 7882.25, -1551.23, -13895.81, 0.05, 0.75, 0.72
29, 33768.37, 42695.25, 21773.95, 2148.29, 3815.51, 7958.38, -1447.14, -13775.47, 0.05, 0.76, 0.72
30, 33584.14, 42712.48, 21571.02, 1943.28, 3615.26, 7826.66, -1555.35, -13854.75, 0.05, 0.76, 0.72
31, 33592.68, 42694.80, 21603.16, 1973.48, 3638.60, 7735.16, -1667.26, -13980.39, 0.05, 0.76, 0.72
32, 33772.86, 42669.84, 21816.87, 2185.35, 3847.38, 7863.86, -1560.04, -13894.98, 0.05, 0.76, 0.72
33, 33785.35, 42685.53, 21806.09, 2172.05, 3842.73, 7956.80, -1445.29, -13760.96, 0.05, 0.76, 0.72
34, 33626.88, 42728.11, 21604.75, 1971.00, 3643.54, 7852.95, -1522.91, -13801.84, 0.05, 0.76, 0.72
35, 33579.70, 42709.36, 21577.55, 1941.54, 3606.36, 7728.54, -1666.01, -13947.58, 0.05, 0.76, 0.72
36, 33742.73, 42671.20, 21785.37, 2140.65, 3799.66, 7815.47, -1607.92, -13917.54, 0.05, 0.76, 0.72
37, 33810.99, 42690.63, 21836.33, 2186.40, 3855.18, 7942.38, -1466.34, -13774.53, 0.05, 0.76, 0.72
38, 33663.85, 42738.41, 21644.18, 1996.46, 3674.16, 7878.56, -1495.96, -13774.24, 0.05, 0.76, 0.72
39, 33576.81, 42728.24, 21568.52, 1920.75, 3593.33, 7742.67, -1639.41, -13909.02, 0.04, 0.75, 0.71
40, 33714.18, 42683.29, 21750.64, 2095.83, 3766.74, 7792.89, -1618.07, -13911.41, 0.04, 0.75, 0.71
41, 33821.45, 42693.02, 21855.67, 2199.28, 3877.27, 7940.88, -1463.53, -13766.01, 0.04, 0.75, 0.71
42, 33694.45, 42732.49, 21680.65, 2027.33, 3712.54, 7910.44, -1463.91, -13736.08, 0.04, 0.75, 0.71
43, 33563.02, 42722.52, 21544.94, 1891.25, 3576.08, 7752.32, -1624.14, -13882.82, 0.04, 0.75, 0.71
44, 33676.48, 42683.92, 21699.16, 2046.28, 3722.26, 7769.44, -1639.93, -13925.72, 0.04, 0.75, 0.71
45, 33822.46, 42687.79, 21850.75, 2198.56, 3874.25, 7934.06, -1481.38, -13779.78, 0.04, 0.75, 0.71
46, 33726.86, 42725.49, 21709.00, 2055.38, 3741.66, 7930.89, -1452.68, -13727.48, 0.04, 0.75, 0.71
47, 33582.89, 42742.34, 21551.82, 1900.64, 3585.18, 7781.74, -1591.35, -13850.91, 0.04, 0.75, 0.71
48, 33658.02, 42704.57, 21665.88, 2018.21, 3695.08, 7760.55, -1638.96, -13922.99, 0.04, 0.75, 0.71
49, 33819.48, 42690.51, 21846.35, 2200.60, 3875.86, 7914.35, -1499.40, -13800.61, 0.04, 0.75, 0.71
50, 33764.59, 42728.55, 21754.77, 2115.26, 3790.97, 7959.93, -1428.43, -13705.49, 0.05, 0.75, 0.71
51, 33593.46, 42744.25, 21554.30, 1920.71, 3594.43, 7807.55, -1560.46, -13817.58, 0.05, 0.75, 0.71
52, 33624.38, 42708.64, 21616.93, 1985.15, 3651.67, 7736.14, -1651.08, -13930.81, 0.05, 0.75, 0.71
53, 33793.47, 42685.77, 21812.64, 2182.47, 3846.82, 7867.66, -1530.94, -13836.74, 0.05, 0.75, 0.71
54, 33776.79, 42711.16, 21761.48, 2135.96, 3807.17, 7941.15, -1431.54, -13724.28, 0.05, 0.75, 0.71
55, 33612.33, 42744.27, 21562.64, 1945.25, 3616.20, 7825.99, -1524.01, -13787.16, 0.06, 0.76, 0.72
56, 33597.49, 42718.23, 21571.69, 1957.21, 3617.36, 7723.87, -1647.26, -13920.82, 0.06, 0.76, 0.72
57, 33772.05, 42692.14, 21785.91, 2168.03, 3820.47, 7834.91, -1558.45, -13863.76, 0.06, 0.76, 0.72
58, 33794.79, 42701.00, 21785.75, 2170.09, 3824.52, 7936.93, -1439.27, -13732.80, 0.06, 0.76, 0.72
59, 33623.32, 42734.14, 21576.05, 1965.68, 3617.74, 7839.58, -1513.82, -13775.13, 0.06, 0.76, 0.72
60, 33557.21, 42714.68, 21529.54, 1920.98, 3565.19, 7710.03, -1658.07, -13924.89, 0.06, 0.76, 0.72
61, 33730.64, 42688.32, 21739.89, 2133.00, 3771.34, 7800.62, -1597.95, -13894.09, 0.06, 0.76, 0.72
62, 33816.82, 42707.03, 21813.51, 2210.41, 3850.51, 7948.15, -1440.73, -13738.68, 0.06, 0.76, 0.72
63, 33665.93, 42742.52, 21618.81, 2017.71, 3662.69, 7886.23, -1471.59, -13739.28, 0.06, 0.76, 0.72
64, 33553.95, 42727.21, 21516.15, 1913.91, 3555.45, 7731.11, -1630.58, -13892.66, 0.06, 0.76, 0.72
65, 33688.53, 42692.01, 21696.77, 2093.60, 3727.58, 7774.09, -1618.96, -13912.28, 0.07, 0.76, 0.73
66, 33813.58, 42705.24, 21820.58, 2220.49, 3854.47, 7933.21, -1462.43, -13764.25, 0.07, 0.76, 0.73
67, 33690.20, 42741.61, 21653.79, 2053.99, 3697.49, 7908.29, -1450.87, -13730.94, 0.07, 0.76, 0.73
68, 33538.37, 42731.82, 21494.82, 1894.78, 3535.93, 7734.93, -1616.57, -13886.76, 0.07, 0.76, 0.73
69, 33644.49, 42697.48, 21644.85, 2043.20, 3676.08, 7738.55, -1644.02, -13939.04, 0.07, 0.76, 0.73
70, 33804.13, 42700.01, 21817.85, 2215.62, 3849.04, 7909.19, -1481.85, -13789.66, 0.06, 0.77, 0.72
71, 33721.25, 42736.13, 21690.38, 2090.33, 3730.93, 7926.22, -1433.91, -13715.63, 0.06, 0.77, 0.72
72, 33573.19, 42754.80, 21524.19, 1923.95, 3564.05, 7781.13, -1568.22, -13832.67, 0.06, 0.77, 0.72
73, 33630.23, 42719.66, 21617.11, 2015.30, 3646.91, 7739.51, -1638.96, -13926.01, 0.06, 0.77, 0.72
74, 33785.33, 42693.71, 21797.87, 2193.80, 3827.27, 7881.76, -1510.55, -13819.39, 0.06, 0.77, 0.72
75, 33755.00, 42731.26, 21730.97, 2127.08, 3768.75, 7949.04, -1422.22, -13707.25, 0.06, 0.77, 0.72
76, 33592.21, 42761.10, 21540.53, 1938.39, 3580.66, 7815.15, -1536.37, -13795.07, 0.04, 0.76, 0.72
77, 33592.08, 42715.12, 21570.80, 1962.95, 3602.72, 7714.66, -1647.97, -13934.41, 0.04, 0.76, 0.72
78, 33761.19, 42685.89, 21769.39, 2160.32, 3796.78, 7833.66, -1548.62, -13865.68, 0.04, 0.76, 0.72
79, 33782.80, 42720.98, 21757.14, 2151.09, 3790.43, 7938.98, -1425.53, -13725.51, 0.04, 0.76, 0.72
80, 33618.79, 42757.84, 21560.36, 1954.17, 3599.10, 7831.58, -1503.15, -13770.75, 0.04, 0.76, 0.72
81, 33590.60, 42737.43, 21555.22, 1948.83, 3590.07, 7722.84, -1622.20, -13899.54, 0.04, 0.76, 0.72
82, 33766.29, 42708.62, 21763.02, 2157.26, 3794.16, 7827.67, -1541.56, -13851.46, 0.04, 0.76, 0.72
83, 33814.12, 42724.00, 21791.14, 2186.65, 3829.14, 7946.02, -1402.46, -13710.40, 0.04, 0.76, 0.72
84, 33638.82, 42746.61, 21573.61, 1969.28, 3619.40, 7844.81, -1469.31, -13754.79, 0.04, 0.76, 0.72
85, 33568.74, 42730.48, 21510.33, 1906.78, 3555.04, 7706.93, -1612.48, -13902.52, 0.04, 0.76, 0.72
86, 33728.29, 42698.71, 21709.33, 2103.84, 3748.45, 7778.25, -1572.38, -13890.42, 0.04, 0.75, 0.72
87, 33826.68, 42711.34, 21788.68, 2183.39, 3828.61, 7915.24, -1435.23, -13751.60, 0.04, 0.75, 0.72
88, 33689.66, 42751.91, 21613.53, 2013.02, 3661.13, 7873.92, -1445.73, -13736.26, 0.04, 0.75, 0.72
89, 33550.91, 42724.33, 21491.51, 1895.41, 3539.20, 7718.55, -1599.38, -13886.71, 0.04, 0.75, 0.72
90, 33682.71, 42685.77, 21659.00, 2060.67, 3697.49, 7745.59, -1601.10, -13919.66, 0.04, 0.75, 0.72
91, 33807.66, 42682.31, 21790.71, 2191.16, 3830.62, 7899.80, -1447.86, -13774.06, 0.05, 0.76, 0.72
92, 33685.62, 42710.16, 21639.08, 2043.08, 3690.88, 7892.65, -1426.29, -13722.32, 0.05, 0.76, 0.72
93, 33546.01, 42721.69, 21486.87, 1893.04, 3534.17, 7739.83, -1575.71, -13856.16, 0.05, 0.76, 0.72
94, 33633.94, 42686.58, 21611.92, 2022.18, 3648.77, 7726.60, -1623.59, -13924.31, 0.05, 0.76, 0.72
95, 33798.25, 42685.19, 21785.55, 2197.82, 3821.84, 7882.88, -1476.29, -13798.11, 0.05, 0.76, 0.72
96, 33733.21, 42724.53, 21679.22, 2093.73, 3724.56, 7919.74, -1412.94, -13709.51, 0.06, 0.76, 0.72
97, 33575.80, 42746.44, 21498.49, 1915.81, 3544.65, 7771.57, -1546.07, -13823.39, 0.06, 0.76, 0.72
98, 33620.46, 42714.76, 21582.02, 2001.91, 3622.35, 7721.32, -1617.66, -13919.46, 0.06, 0.76, 0.72
99, 33784.19, 42691.11, 21772.48, 2191.16, 3811.13, 7860.73, -1494.97, -13818.99, 0.06, 0.76, 0.72
100, 33761.10, 42724.48, 21714.70, 2135.51, 3762.33, 7929.77, -1399.22, -13705.11, 0.06, 0.76, 0.72
101, 33583.45, 42745.86, 21505.33, 1928.91, 3557.91, 7788.13, -1515.76, -13797.71, 0.06, 0.76, 0.72
102, 33579.94, 42716.55, 21532.02, 1954.73, 3575.68, 7693.56, -1628.41, -13924.38, 0.06, 0.76, 0.72
103, 33746.42, 42686.38, 21734.41, 2155.27, 3770.02, 7808.54, -1534.54, -13859.22, 0.06, 0.76, 0.72
104, 33772.93, 42710.58, 21735.91, 2156.59, 3777.13, 7914.62, -1408.76, -13722.54, 0.06, 0.76, 0.72
105, 33609.63, 42746.28, 21535.73, 1954.44, 3579.63, 7812.25, -1485.74, -13769.81, 0.06, 0.76, 0.72
106, 33561.99, 42725.09, 21510.51, 1927.70, 3543.47, 7691.37, -1621.95, -13912.19, 0.06, 0.76, 0.72
107, 33731.02, 42694.60, 21714.14, 2129.83, 3739.51, 7778.45, -1562.32, -13885.51, 0.06, 0.76, 0.72
108, 33792.75, 42706.65, 21763.38, 2178.62, 3795.24, 7904.98, -1420.72, -13741.79, 0.06, 0.76, 0.72
109, 33641.01, 42746.46, 21567.29, 1987.70, 3608.93, 7842.47, -1452.66, -13737.54, 0.06, 0.76, 0.72
110, 33546.93, 42728.80, 21476.36, 1900.48, 3514.66, 7691.91, -1607.69, -13890.71, 0.06, 0.76, 0.72
111, 33699.75, 42695.52, 21671.89, 2094.65, 3702.43, 7751.56, -1579.35, -13892.21, 0.06, 0.76, 0.72
112, 33815.71, 42711.77, 21781.10, 2203.99, 3817.92, 7909.86, -1416.85, -13733.45, 0.05, 0.76, 0.72
113, 33687.27, 42749.86, 21603.47, 2028.73, 3651.34, 7875.06, -1420.39, -13705.44, 0.05, 0.76, 0.72
114, 33558.30, 42744.96, 21470.62, 1896.79, 3514.54, 7712.87, -1584.60, -13862.08, 0.05, 0.76, 0.72
115, 33665.05, 42701.09, 21624.42, 2046.26, 3659.32, 7721.16, -1605.79, -13913.89, 0.05, 0.76, 0.72
116, 33801.18, 42696.50, 21767.65, 2190.72, 3807.66, 7881.90, -1451.30, -13766.86, 0.05, 0.76, 0.72
117, 33703.17, 42731.82, 21626.09, 2050.41, 3675.01, 7885.40, -1416.79, -13702.02, 0.06, 0.75, 0.72
118, 33561.14, 42746.66, 21473.72, 1896.86, 3517.96, 7738.26, -1555.99, -13826.23, 0.06, 0.75, 0.72
119, 33630.86, 42706.43, 21586.26, 2009.96, 3621.12, 7713.54, -1608.77, -13901.85, 0.06, 0.75, 0.72
120, 33787.66, 42691.65, 21759.62, 2183.90, 3794.57, 7859.54, -1475.98, -13789.19, 0.06, 0.75, 0.72
121, 33737.07, 42728.13, 21667.20, 2094.18, 3710.50, 7905.95, -1403.94, -13694.38, 0.06, 0.75, 0.72
122, 33564.25, 42742.10, 21470.68, 1900.01, 3514.32, 7755.29, -1535.48, -13804.26, 0.05, 0.76, 0.71
123, 33601.58, 42714.23, 21540.17, 1968.27, 3573.75, 7695.39, -1618.31, -13903.81, 0.05, 0.76, 0.71
124, 33764.21, 42682.18, 21723.48, 2150.77, 3752.84, 7816.72, -1517.19, -13823.93, 0.05, 0.76, 0.71
125, 33762.06, 42716.30, 21689.93, 2119.82, 3730.60, 7901.59, -1406.19, -13700.52, 0.05, 0.76, 0.71
126, 33589.55, 42747.15, 21485.81, 1918.83, 3530.77, 7781.16, -1504.09, -13771.85, 0.05, 0.76, 0.71
127, 33573.64, 42719.23, 21498.53, 1928.80, 3534.35, 7679.63, -1626.74, -13908.04, 0.05, 0.76, 0.71
128, 33740.14, 42682.82, 21702.36, 2131.17, 3734.02, 7788.76, -1542.18, -13849.88, 0.05, 0.76, 0.71
129, 33783.79, 42707.32, 21725.69, 2154.44, 3764.10, 7911.42, -1402.57, -13701.42, 0.05, 0.76, 0.71
130, 33609.20, 42735.77, 21513.87, 1943.64, 3559.60, 7814.13, -1474.46, -13739.59, 0.05, 0.76, 0.71
131, 33539.42, 42710.09, 21464.74, 1891.20, 3506.59, 7679.52, -1614.89, -13891.61, 0.05, 0.76, 0.71
132, 33711.32, 42685.04, 21680.03, 2103.25, 3714.46, 7765.87, -1551.90, -13864.88, 0.05, 0.77, 0.72
133, 33792.21, 42699.27, 21747.35, 2172.30, 3786.50, 7899.06, -1407.40, -13721.40, 0.05, 0.77, 0.72
134, 33637.86, 42733.43, 21550.59, 1973.50, 3596.24, 7829.10, -1446.02, -13727.84, 0.05, 0.77, 0.72
135, 33543.39, 42725.80, 21458.84, 1880.32, 3501.09, 7688.28, -1588.45, -13858.06, 0.05, 0.77, 0.72
136, 33678.00, 42686.67, 21634.10, 2056.18, 3669.96, 7729.01, -1577.90, -13874.82, 0.05, 0.77, 0.72
137, 33786.76, 42682.96, 21753.37, 2169.21, 3785.67, 7873.58, -1429.37, -13738.81, 0.05, 0.77, 0.72
138, 33663.54, 42718.74, 21586.04, 2001.24, 3627.76, 7847.61, -1425.57, -13706.33, 0.05, 0.76, 0.72
139, 33525.80, 42715.95, 21436.48, 1852.94, 3480.43, 7685.40, -1584.05, -13854.30, 0.05, 0.76, 0.72
140, 33637.86, 42687.72, 21589.64, 2005.87, 3625.77, 7694.12, -1607.20, -13909.27, 0.05, 0.76, 0.72
141, 33790.34, 42685.10, 21756.47, 2170.85, 3790.83, 7858.92, -1451.54, -13764.27, 0.05, 0.76, 0.72
142, 33714.39, 42720.91, 21633.49, 2046.53, 3677.78, 7876.71, -1404.58, -13688.10, 0.05, 0.76, 0.72
143, 33555.24, 42728.22, 21451.30, 1865.10, 3497.49, 7717.14, -1554.59, -13815.12, 0.05, 0.76, 0.72
144, 33610.16, 42687.54, 21544.64, 1959.67, 3582.07, 7671.50, -1628.75, -13913.98, 0.05, 0.76, 0.72
145, 33769.93, 42667.49, 21727.26, 2144.29, 3764.06, 7817.01, -1499.31, -13805.76, 0.05, 0.76, 0.72
146, 33740.65, 42706.31, 21656.00, 2075.96, 3703.73, 7881.63, -1413.30, -13696.72, 0.05, 0.76, 0.72
147, 33572.90, 42727.26, 21456.80, 1878.19, 3508.87, 7740.61, -1534.42, -13793.95, 0.05, 0.76, 0.72
148, 33585.86, 42696.05, 21491.63, 1912.66, 3536.47, 7654.78, -1642.81, -13920.51, 0.05, 0.75, 0.72
149, 33757.77, 42670.62, 21686.40, 2106.63, 3725.61, 7777.20, -1540.84, -13842.88, 0.05, 0.75, 0.72
150, 33768.43, 42698.34, 21689.37, 2109.27, 3734.28, 7890.63, -1407.98, -13694.42, 0.05, 0.75, 0.72
151, 33586.51, 42718.81, 21482.33, 1898.80, 3531.66, 7771.68, -1502.80, -13758.77, 0.05, 0.75, 0.72
152, 33563.67, 42696.12, 21463.93, 1876.52, 3507.95, 7647.22, -1640.53, -13909.22, 0.05, 0.75, 0.72
153, 33720.27, 42652.34, 21666.86, 2079.03, 3704.96, 7745.37, -1566.43, -13866.44, 0.05, 0.75, 0.72
154, 33772.84, 42666.86, 21699.16, 2112.24, 3747.56, 7870.34, -1430.56, -13723.10, 0.05, 0.75, 0.72
155, 33612.20, 42700.82, 21495.92, 1908.59, 3550.13, 7785.18, -1484.54, -13751.84, 0.05, 0.75, 0.72
156, 33529.49, 42677.01, 21425.60, 1840.71, 3474.78, 7642.87, -1634.40, -13905.33, 0.05, 0.75, 0.72
157, 33689.20, 42645.47, 21624.93, 2043.71, 3668.86, 7717.77, -1591.35, -13890.92, 0.05, 0.75, 0.72
158, 33780.79, 42657.12, 21706.74, 2126.28, 3755.56, 7861.31, -1443.57, -13740.24, 0.05, 0.75, 0.72
159, 33641.77, 42698.45, 21522.29, 1943.19, 3578.87, 7810.15, -1462.61, -13730.77, 0.05, 0.75, 0.72
160, 33529.43, 42695.32, 21408.68, 1830.74, 3458.49, 7658.65, -1618.62, -13877.95, 0.05, 0.75, 0.72
161, 33661.57, 42660.16, 21581.21, 2003.36, 3620.27, 7691.64, -1618.38, -13908.62, 0.05, 0.75, 0.72
162, 33791.66, 42659.64, 21715.63, 2135.22, 3755.09, 7843.96, -1462.09, -13768.88, 0.05, 0.75, 0.72
163, 33682.45, 42696.70, 21559.73, 1982.22, 3607.50, 7828.27, -1442.49, -13723.93, 0.05, 0.75, 0.72
164, 33536.18, 42699.63, 21404.72, 1829.98, 3449.68, 7669.24, -1592.65, -13862.80, 0.06, 0.75, 0.71
165, 33617.43, 42660.79, 21528.66, 1953.61, 3564.70, 7650.22, -1638.36, -13934.12, 0.06, 0.75, 0.71
166, 33772.01, 42653.70, 21699.59, 2124.58, 3736.81, 7804.92, -1492.07, -13802.69, 0.06, 0.75, 0.71
167, 33710.59, 42693.15, 21592.90, 2021.60, 3640.63, 7839.63, -1431.54, -13714.23, 0.06, 0.75, 0.71
168, 33540.00, 42703.81, 21402.17, 1832.46, 3451.69, 7685.33, -1576.16, -13835.53, 0.06, 0.75, 0.71
169, 33587.81, 42671.51, 21486.24, 1916.19, 3527.78, 7632.18, -1650.70, -13935.15, 0.06, 0.76, 0.71
170, 33753.50, 42647.21, 21676.68, 2104.26, 3714.37, 7768.77, -1527.12, -13835.33, 0.06, 0.76, 0.71
171, 33727.93, 42681.30, 21621.65, 2050.84, 3666.07, 7843.05, -1429.75, -13719.52, 0.06, 0.76, 0.71
172, 33556.70, 42706.70, 21420.03, 1847.82, 3465.19, 7707.91, -1543.63, -13810.38, 0.06, 0.76, 0.71
173, 33566.60, 42684.48, 21455.24, 1883.60, 3494.43, 7625.07, -1645.02, -13931.66, 0.06, 0.76, 0.71
174, 33753.05, 42665.81, 21674.06, 2104.26, 3707.51, 7766.92, -1533.13, -13845.61, 0.06, 0.77, 0.72
175, 33771.52, 42689.06, 21664.00, 2096.88, 3705.09, 7867.88, -1417.37, -13711.61, 0.06, 0.77, 0.72
176, 33595.52, 42718.90, 21455.42, 1889.91, 3503.48, 7758.60, -1505.48, -13771.94, 0.06, 0.77, 0.72
177, 33542.90, 42694.60, 21426.56, 1861.77, 3467.83, 7637.10, -1643.17, -13920.17, 0.06, 0.77, 0.72
178, 33702.25, 42656.40, 21622.88, 2058.77, 3660.08, 7725.34, -1576.11, -13883.67, 0.06, 0.77, 0.72
