%OpenBCI Raw EEG Data
%Number of channels = 8
%Sample Rate = 250 Hz
%Board = OpenBCI_GUI$BoardCytonSerial
0.0,0.0,0.0,0.0,0.0,0.0,0.0,0.0,0.0,0.0,0.0,0.0,0.0,0.0,0.0,0.0,0.0,0.0,0.0,0.0,0.0,0.0,0.0,0.0
0, 61379.36, 49492.89, -16597.06, -21309.75, 6703.91, -3284.86, 7223.10, 1740.11, 0.040, 0.420, 0.238,0.0,0.0,0.0,0.0,0.0,0.0,0.0,0.0,0.0,0.0, 1557936053329, 12:00:53.329
1, 60973.46, 48972.47, -16279.02, -21050.13, 7045.02, -2887.53, 7593.09, 2118.70, 0.040, 0.420, 0.238,0.0,0.0,0.0,0.0,0.0,0.0,0.0,0.0,0.0,0.0, 1557936053336, 12:00:53.336
2, 61433.45, 49486.27, -16245.72, -20920.25, 7035.70, -2916.12, 7561.15, 2090.85, 0.040, 0.420, 0.238,0.0,0.0,0.0,0.0,0.0,0.0,0.0,0.0,0.0,0.0, 1557936053336, 12:00:53.336
3, 61788.96, 49917.57, -16488.30, -21147.99, 6770.81, -3223.32, 7286.27, 1805.86, 0.040, 0.420, 0.238,0.0,0.0,0.0,0.0,0.0,0.0,0.0,0.0,0.0,0.0, 1557936053343, 12:00:53.343
4, 61512.69, 49619.42, -16606.27, -21326.92, 6676.73, -3309.31, 7188.50, 1709.48, 0.040, 0.420, 0.238,0.0,0.0,0.0,0.0,0.0,0.0,0.0,0.0,0.0,0.0, 1557936053343, 12:00:53.343
5, 60988.50, 48976.52, -16344.53, -21154.36, 6952.42, -2958.16, 7481.04, 2029.85, 0.040, 0.420, 0.238,0.0,0.0,0.0,0.0,0.0,0.0,0.0,0.0,0.0,0.0, 1557936053351, 12:00:53.351
6, 61315.06, 49330.77, -16228.46, -20954.00, 7035.21, -2914.51, 7554.31, 2106.12, 0.040, 0.420, 0.238,0.0,0.0,0.0,0.0,0.0,0.0,0.0,0.0,0.0,0.0, 1557936053352, 12:00:53.352
7, 61769.25, 49873.18, -16460.85, -21159.12, 6771.26, -3225.07, 7291.07, 1823.68, 0.032, 0.626, 0.376,0.0,0.0,0.0,0.0,0.0,0.0,0.0,0.0,0.0,0.0, 1557936053360, 12:00:53.360
8, 61622.57, 49717.79, -16574.18, -21321.87, 6670.45, -3319.14, 7204.59, 1729.71, 0.032, 0.626, 0.376,0.0,0.0,0.0,0.0,0.0,0.0,0.0,0.0,0.0,0.0, 1557936053360, 12:00:53.360
9, 61061.59, 49044.09, -16355.02, -21197.70, 6914.80, -2998.60, 7478.65, 2022.79, 0.032, 0.626, 0.376,0.0,0.0,0.0,0.0,0.0,0.0,0.0,0.0,0.0,0.0, 1557936053366, 12:00:53.366
10, 61240.47, 49213.91, -16163.19, -20941.15, 7083.56, -2855.61, 7631.04, 2181.13, 0.032, 0.626, 0.376,0.0,0.0,0.0,0.0,0.0,0.0,0.0,0.0,0.0,0.0, 1557936053366, 12:00:53.366
11, 61796.87, 49864.80, -16376.45, -21086.48, 6833.33, -3156.56, 7356.96, 1897.19, 0.032, 0.626, 0.376,0.0,0.0,0.0,0.0,0.0,0.0,0.0,0.0,0.0,0.0, 1557936053373, 12:00:53.373
12, 61744.46, 49819.82, -16537.32, -21280.11, 6681.74, -3314.29, 7212.62, 1739.35, 0.032, 0.626, 0.376,0.0,0.0,0.0,0.0,0.0,0.0,0.0,0.0,0.0,0.0, 1557936053373, 12:00:53.373
13, 61160.23, 49131.93, -16414.16, -21256.15, 6851.06, -3083.83, 7418.61, 1952.34, 0.032, 0.626, 0.376,0.0,0.0,0.0,0.0,0.0,0.0,0.0,0.0,0.0,0.0, 1557936053381, 12:00:53.381
14, 61165.82, 49098.42, -16165.38, -20961.96, 7103.41, -2835.36, 7659.65, 2207.10, 0.032, 0.626, 0.376,0.0,0.0,0.0,0.0,0.0,0.0,0.0,0.0,0.0,0.0, 1557936053382, 12:00:53.382
15, 61760.48, 49799.93, -16340.85, -21046.87, 6885.99, -3104.03, 7407.46, 1955.08, 0.032, 0.626, 0.376,0.0,0.0,0.0,0.0,0.0,0.0,0.0,0.0,0.0,0.0, 1557936053388, 12:00:53.388
16, 61824.21, 49891.17, -16510.54, -21246.20, 6700.78, -3290.44, 7214.63, 1756.11, 0.032, 0.626, 0.376,0.0,0.0,0.0,0.0,0.0,0.0,0.0,0.0,0.0,0.0, 1557936053399, 12:00:53.399
17, 61294.61, 49277.73, -16452.60, -21282.41, 6792.31, -3140.06, 7339.37, 1890.11, 0.020, 0.732, 0.444,0.0,0.0,0.0,0.0,0.0,0.0,0.0,0.0,0.0,0.0, 1557936053400, 12:00:53.400
18, 61103.03, 49013.86, -16171.24, -20992.29, 7090.53, -2825.26, 7664.37, 2223.51, 0.020, 0.732, 0.444,0.0,0.0,0.0,0.0,0.0,0.0,0.0,0.0,0.0,0.0, 1557936053403, 12:00:53.403
19, 61696.47, 49703.89, -16276.85, -20992.47, 6939.32, -3028.62, 7493.06, 2045.88, 0.020, 0.732, 0.444,0.0,0.0,0.0,0.0,0.0,0.0,0.0,0.0,0.0,0.0, 1557936053403, 12:00:53.403
20, 61879.21, 49930.87, -16474.26, -21195.33, 6744.44, -3248.47, 7289.62, 1823.92, 0.020, 0.732, 0.444,0.0,0.0,0.0,0.0,0.0,0.0,0.0,0.0,0.0,0.0, 1557936053410, 12:00:53.410
21, 61442.13, 49426.43, -16479.09, -21279.55, 6771.10, -3186.33, 7332.44, 1866.66, 0.020, 0.732, 0.444,0.0,0.0,0.0,0.0,0.0,0.0,0.0,0.0,0.0,0.0, 1557936053411, 12:00:53.411
22, 61092.03, 48975.73, -16179.96, -21012.09, 7075.62, -2829.48, 7653.44, 2211.86, 0.020, 0.732, 0.444,0.0,0.0,0.0,0.0,0.0,0.0,0.0,0.0,0.0,0.0, 1557936053418, 12:00:53.418
23, 61601.83, 49559.94, -16258.21, -20981.96, 6959.48, -3003.54, 7512.20, 2071.34, 0.020, 0.732, 0.444,0.0,0.0,0.0,0.0,0.0,0.0,0.0,0.0,0.0,0.0, 1557936053419, 12:00:53.419
24, 61906.62, 49924.50, -16475.52, -21191.89, 6728.81, -3254.59, 7273.37, 1827.68, 0.020, 0.732, 0.444,0.0,0.0,0.0,0.0,0.0,0.0,0.0,0.0,0.0,0.0, 1557936053425, 12:00:53.425
25, 61569.42, 49539.27, -16520.40, -21304.81, 6703.31, -3241.49, 7270.31, 1823.43, 0.020, 0.732, 0.444,0.0,0.0,0.0,0.0,0.0,0.0,0.0,0.0,0.0,0.0, 1557936053425, 12:00:53.425
26, 61103.03, 48957.07, -16213.73, -21062.63, 7042.65, -2852.86, 7626.04, 2187.52, 0.020, 0.732, 0.444,0.0,0.0,0.0,0.0,0.0,0.0,0.0,0.0,0.0,0.0, 1557936053433, 12:00:53.433
27, 61552.79, 49464.77, -16170.37, -20909.63, 7052.15, -2896.99, 7615.42, 2171.34, 0.034, 0.778, 0.494,0.0,0.0,0.0,0.0,0.0,0.0,0.0,0.0,0.0,0.0, 1557936053433, 12:00:53.433
28, 61950.96, 49940.52, -16412.42, -21125.77, 6795.13, -3198.00, 7339.04, 1883.58, 0.034, 0.778, 0.494,0.0,0.0,0.0,0.0,0.0,0.0,0.0,0.0,0.0,0.0, 1557936053441, 12:00:53.441
29, 61696.67, 49657.46, -16523.01, -21293.14, 6709.66, -3272.00, 7261.25, 1800.10, 0.034, 0.778, 0.494,0.0,0.0,0.0,0.0,0.0,0.0,0.0,0.0,0.0,0.0, 1557936053441, 12:00:53.441
30, 61152.61, 48984.09, -16260.83, -21118.58, 6996.30, -2912.23, 7572.52, 2125.83, 0.034, 0.778, 0.494,0.0,0.0,0.0,0.0,0.0,0.0,0.0,0.0,0.0,0.0, 1557936053447, 12:00:53.447
31, 61476.62, 49333.74, -16127.03, -20893.45, 7095.07, -2851.95, 7653.53, 2210.65, 0.034, 0.778, 0.494,0.0,0.0,0.0,0.0,0.0,0.0,0.0,0.0,0.0,0.0, 1557936053455, 12:00:53.455
32, 61995.38, 49946.85, -16357.81, -21078.01, 6817.28, -3154.43, 7367.09, 1921.53, 0.034, 0.778, 0.494,0.0,0.0,0.0,0.0,0.0,0.0,0.0,0.0,0.0,0.0, 1557936053455, 12:00:53.455
33, 61816.18, 49764.59, -16532.18, -21294.53, 6668.93, -3296.95, 7216.77, 1767.40, 0.034, 0.778, 0.494,0.0,0.0,0.0,0.0,0.0,0.0,0.0,0.0,0.0,0.0, 1557936053463, 12:00:53.463
34, 61216.04, 49035.81, -16348.04, -21217.88, 6892.18, -3017.33, 7454.73, 2019.99, 0.034, 0.778, 0.494,0.0,0.0,0.0,0.0,0.0,0.0,0.0,0.0,0.0,0.0, 1557936053463, 12:00:53.463
35, 61354.84, 49160.52, -16143.46, -20948.70, 7069.25, -2842.87, 7620.29, 2202.70, 0.034, 0.778, 0.494,0.0,0.0,0.0,0.0,0.0,0.0,0.0,0.0,0.0,0.0, 1557936053471, 12:00:53.471
36, 61946.32, 49869.60, -16329.16, -21060.82, 6843.34, -3114.27, 7371.90, 1946.84, 0.034, 0.778, 0.494,0.0,0.0,0.0,0.0,0.0,0.0,0.0,0.0,0.0,0.0, 1557936053471, 12:00:53.471
37, 61888.80, 49833.50, -16513.60, -21276.89, 6689.32, -3295.30, 7211.92, 1767.17, 0.032, 0.796, 0.506,0.0,0.0,0.0,0.0,0.0,0.0,0.0,0.0,0.0,0.0, 1557936053477, 12:00:53.477
38, 61299.97, 49132.69, -16394.54, -21260.02, 6852.82, -3074.80, 7413.60, 1959.56, 0.032, 0.796, 0.506,0.0,0.0,0.0,0.0,0.0,0.0,0.0,0.0,0.0,0.0, 1557936053478, 12:00:53.478
39, 61274.13, 49065.30, -16129.93, -20957.04, 7098.73, -2816.90, 7662.00, 2221.61, 0.032, 0.796, 0.506,0.0,0.0,0.0,0.0,0.0,0.0,0.0,0.0,0.0,0.0, 1557936053485, 12:00:53.485
40, 61879.64, 49787.86, -16309.93, -21035.05, 6869.47, -3080.74, 7423.86, 1986.65, 0.032, 0.796, 0.506,0.0,0.0,0.0,0.0,0.0,0.0,0.0,0.0,0.0,0.0, 1557936053485, 12:00:53.485
41, 61976.78, 49904.78, -16485.62, -21232.61, 6715.00, -3264.67, 7264.61, 1809.35, 0.032, 0.796, 0.506,0.0,0.0,0.0,0.0,0.0,0.0,0.0,0.0,0.0,0.0, 1557936053493, 12:00:53.493
42, 61476.10, 49306.92, -16422.54, -21262.48, 6819.16, -3114.76, 7398.61, 1935.59, 0.032, 0.796, 0.506,0.0,0.0,0.0,0.0,0.0,0.0,0.0,0.0,0.0,0.0, 1557936053494, 12:00:53.494
43, 61283.23, 49033.40, -16110.96, -20945.06, 7125.20, -2765.07, 7721.19, 2274.42, 0.032, 0.796, 0.506,0.0,0.0,0.0,0.0,0.0,0.0,0.0,0.0,0.0,0.0, 1557936053502, 12:00:53.502
44, 61870.70, 49728.61, -16236.84, -20960.86, 6957.02, -2991.20, 7519.89, 2071.02, 0.032, 0.796, 0.506,0.0,0.0,0.0,0.0,0.0,0.0,0.0,0.0,0.0,0.0, 1557936053502, 12:00:53.502
45, 62053.83, 49965.09, -16478.40, -21204.90, 6717.24, -3253.07, 7275.20, 1809.17, 0.032, 0.796, 0.506,0.0,0.0,0.0,0.0,0.0,0.0,0.0,0.0,0.0,0.0, 1557936053508, 12:00:53.508
46, 61611.62, 49454.64, -16487.36, -21297.86, 6746.78, -3190.15, 7334.70, 1857.90, 0.032, 0.796, 0.506,0.0,0.0,0.0,0.0,0.0,0.0,0.0,0.0,0.0,0.0, 1557936053516, 12:00:53.516
47, 61252.00, 48982.37, -16152.29, -21004.18, 7086.33, -2802.84, 7694.32, 2226.23, 0.032, 0.800, 0.528,0.0,0.0,0.0,0.0,0.0,0.0,0.0,0.0,0.0,0.0, 1557936053517, 12:00:53.517
48, 61762.76, 49574.91, -16206.38, -20953.17, 6985.43, -2971.98, 7553.17, 2087.63, 0.032, 0.800, 0.528,0.0,0.0,0.0,0.0,0.0,0.0,0.0,0.0,0.0,0.0, 1557936053525, 12:00:53.525
49, 62115.68, 49995.62, -16410.43, -21149.15, 6761.22, -3218.14, 7325.83, 1857.05, 0.032, 0.800, 0.528,0.0,0.0,0.0,0.0,0.0,0.0,0.0,0.0,0.0,0.0, 1557936053525, 12:00:53.525
50, 61790.59, 49623.75, -16462.66, -21274.55, 6740.59, -3221.94, 7313.69, 1840.98, 0.032, 0.800, 0.528,0.0,0.0,0.0,0.0,0.0,0.0,0.0,0.0,0.0,0.0, 1557936053531, 12:00:53.531
51, 61276.77, 48982.62, -16174.68, -21067.77, 7040.33, -2863.71, 7631.31, 2174.22, 0.032, 0.800, 0.528,0.0,0.0,0.0,0.0,0.0,0.0,0.0,0.0,0.0,0.0, 1557936053532, 12:00:53.532
52, 61689.56, 49452.90, -16137.49, -20924.65, 7045.90, -2907.00, 7609.58, 2163.78, 0.032, 0.800, 0.528,0.0,0.0,0.0,0.0,0.0,0.0,0.0,0.0,0.0,0.0, 1557936053539, 12:00:53.539
53, 62131.95, 49988.42, -16366.66, -21125.55, 6796.81, -3184.70, 7363.18, 1905.26, 0.032, 0.800, 0.528,0.0,0.0,0.0,0.0,0.0,0.0,0.0,0.0,0.0,0.0, 1557936053540, 12:00:53.540
54, 61889.52, 49716.69, -16487.52, -21300.45, 6705.25, -3267.27, 7292.48, 1823.41, 0.032, 0.800, 0.528,0.0,0.0,0.0,0.0,0.0,0.0,0.0,0.0,0.0,0.0, 1557936053546, 12:00:53.546
55, 61332.38, 49021.46, -16227.63, -21127.96, 6997.03, -2900.43, 7602.97, 2147.49, 0.032, 0.800, 0.528,0.0,0.0,0.0,0.0,0.0,0.0,0.0,0.0,0.0,0.0, 1557936053546, 12:00:53.546
56, 61594.21, 49309.00, -16113.37, -20914.30, 7084.88, -2834.74, 7681.82, 2225.18, 0.032, 0.800, 0.528,0.0,0.0,0.0,0.0,0.0,0.0,0.0,0.0,0.0,0.0, 1557936053554, 12:00:53.554
57, 62141.63, 49966.92, -16335.53, -21079.88, 6825.46, -3134.47, 7412.31, 1949.30, 0.022, 0.802, 0.530,0.0,0.0,0.0,0.0,0.0,0.0,0.0,0.0,0.0,0.0, 1557936053554, 12:00:53.554
58, 62028.17, 49839.56, -16480.48, -21267.39, 6698.88, -3264.41, 7277.37, 1809.78, 0.022, 0.802, 0.530,0.0,0.0,0.0,0.0,0.0,0.0,0.0,0.0,0.0,0.0, 1557936053560, 12:00:53.560
59, 61409.47, 49095.20, -16304.23, -21194.37, 6910.76, -2986.10, 7512.89, 2053.88, 0.022, 0.802, 0.530,0.0,0.0,0.0,0.0,0.0,0.0,0.0,0.0,0.0,0.0, 1557936053560, 12:00:53.560
60, 61487.61, 49162.97, -16116.55, -20943.67, 7077.55, -2837.76, 7678.56, 2214.81, 0.022, 0.802, 0.530,0.0,0.0,0.0,0.0,0.0,0.0,0.0,0.0,0.0,0.0, 1557936053567, 12:00:53.567
61, 62087.18, 49875.99, -16326.41, -21072.31, 6832.50, -3141.14, 7410.81, 1938.68, 0.022, 0.802, 0.530,0.0,0.0,0.0,0.0,0.0,0.0,0.0,0.0,0.0,0.0, 1557936053568, 12:00:53.568
62, 62103.98, 49894.99, -16482.42, -21258.61, 6691.51, -3292.43, 7265.05, 1787.71, 0.022, 0.802, 0.530,0.0,0.0,0.0,0.0,0.0,0.0,0.0,0.0,0.0,0.0, 1557936053575, 12:00:53.575
63, 61542.38, 49210.45, -16358.17, -21241.51, 6849.83, -3070.93, 7449.30, 1974.26, 0.022, 0.802, 0.530,0.0,0.0,0.0,0.0,0.0,0.0,0.0,0.0,0.0,0.0, 1557936053583, 12:00:53.583
64, 61494.09, 49111.00, -16066.68, -20914.30, 7133.72, -2773.31, 7730.89, 2271.92, 0.022, 0.802, 0.530,0.0,0.0,0.0,0.0,0.0,0.0,0.0,0.0,0.0,0.0, 1557936053584, 12:00:53.584
65, 62134.90, 49873.02, -16206.31, -20957.46, 6935.95, -3026.45, 7504.55, 2044.04, 0.022, 0.802, 0.530,0.0,0.0,0.0,0.0,0.0,0.0,0.0,0.0,0.0,0.0, 1557936053590, 12:00:53.590
66, 62233.45, 50011.38, -16404.46, -21174.79, 6742.36, -3237.09, 7307.21, 1839.68, 0.022, 0.802, 0.530,0.0,0.0,0.0,0.0,0.0,0.0,0.0,0.0,0.0,0.0, 1557936053590, 12:00:53.590
67, 61688.15, 49372.88, -16391.29, -21256.20, 6805.95, -3127.37, 7397.76, 1938.32, 0.022, 0.820, 0.538,0.0,0.0,0.0,0.0,0.0,0.0,0.0,0.0,0.0,0.0, 1557936053598, 12:00:53.598
68, 61424.52, 49021.96, -16095.54, -20973.49, 7103.29, -2803.94, 7701.18, 2251.71, 0.022, 0.820, 0.538,0.0,0.0,0.0,0.0,0.0,0.0,0.0,0.0,0.0,0.0, 1557936053599, 12:00:53.599
69, 62028.39, 49737.46, -16178.88, -20951.85, 6968.51, -2999.81, 7542.69, 2084.84, 0.022, 0.820, 0.538,0.0,0.0,0.0,0.0,0.0,0.0,0.0,0.0,0.0,0.0, 1557936053606, 12:00:53.606
70, 62264.56, 50028.97, -16391.03, -21175.08, 6743.92, -3242.25, 7315.97, 1844.42, 0.022, 0.820, 0.538,0.0,0.0,0.0,0.0,0.0,0.0,0.0,0.0,0.0,0.0, 1557936053606, 12:00:53.606
71, 61845.40, 49540.54, -16402.34, -21270.12, 6769.81, -3178.98, 7357.48, 1891.40, 0.022, 0.820, 0.538,0.0,0.0,0.0,0.0,0.0,0.0,0.0,0.0,0.0,0.0, 1557936053613, 12:00:53.613
72, 61417.09, 48998.78, -16097.82, -21012.18, 7089.82, -2814.02, 7691.03, 2241.63, 0.022, 0.820, 0.538,0.0,0.0,0.0,0.0,0.0,0.0,0.0,0.0,0.0,0.0, 1557936053613, 12:00:53.613
73, 61922.51, 49602.12, -16142.34, -20934.53, 7010.67, -2946.27, 7586.58, 2135.96, 0.022, 0.820, 0.538,0.0,0.0,0.0,0.0,0.0,0.0,0.0,0.0,0.0,0.0, 1557936053621, 12:00:53.621
74, 62283.89, 50052.71, -16372.43, -21149.46, 6750.20, -3214.16, 7329.29, 1876.03, 0.022, 0.820, 0.538,0.0,0.0,0.0,0.0,0.0,0.0,0.0,0.0,0.0,0.0, 1557936053621, 12:00:53.621
75, 61970.72, 49679.81, -16433.16, -21288.76, 6722.22, -3233.83, 7306.09, 1842.21, 0.022, 0.820, 0.538,0.0,0.0,0.0,0.0,0.0,0.0,0.0,0.0,0.0,0.0, 1557936053629, 12:00:53.629
76, 61453.82, 49029.42, -16133.42, -21066.79, 7044.64, -2852.46, 7660.52, 2198.85, 0.022, 0.820, 0.538,0.0,0.0,0.0,0.0,0.0,0.0,0.0,0.0,0.0,0.0, 1557936053630, 12:00:53.630
77, 61836.52, 49473.51, -16093.32, -20917.41, 7063.17, -2897.37, 7642.98, 2176.28, 0.010, 0.820, 0.546,0.0,0.0,0.0,0.0,0.0,0.0,0.0,0.0,0.0,0.0, 1557936053636, 12:00:53.636
78, 62301.35, 50045.35, -16337.25, -21119.87, 6785.70, -3200.28, 7355.40, 1889.08, 0.010, 0.820, 0.546,0.0,0.0,0.0,0.0,0.0,0.0,0.0,0.0,0.0,0.0, 1557936053642, 12:00:53.642
79, 62114.85, 49822.68, -16419.63, -21257.94, 6723.05, -3253.72, 7302.52, 1838.07, 0.010, 0.820, 0.546,0.0,0.0,0.0,0.0,0.0,0.0,0.0,0.0,0.0,0.0, 1557936053643, 12:00:53.643
80, 61526.21, 49090.09, -16186.73, -21112.83, 6997.75, -2927.61, 7607.93, 2150.93, 0.010, 0.820, 0.546,0.0,0.0,0.0,0.0,0.0,0.0,0.0,0.0,0.0,0.0, 1557936053650, 12:00:53.650
81, 61728.83, 49325.27, -16074.64, -20912.52, 7092.72, -2838.63, 7691.37, 2236.69, 0.010, 0.820, 0.546,0.0,0.0,0.0,0.0,0.0,0.0,0.0,0.0,0.0,0.0, 1557936053650, 12:00:53.650
82, 62296.37, 50019.16, -16285.73, -21056.39, 6845.09, -3118.63, 7436.85, 1980.16, 0.010, 0.820, 0.546,0.0,0.0,0.0,0.0,0.0,0.0,0.0,0.0,0.0,0.0, 1557936053658, 12:00:53.658
83, 62230.56, 49933.64, -16406.00, -21217.71, 6743.03, -3245.47, 7339.26, 1869.84, 0.010, 0.820, 0.546,0.0,0.0,0.0,0.0,0.0,0.0,0.0,0.0,0.0,0.0, 1557936053658, 12:00:53.658
84, 61629.32, 49184.79, -16238.79, -21147.45, 6943.73, -2945.40, 7564.61, 2109.27, 0.010, 0.820, 0.546,0.0,0.0,0.0,0.0,0.0,0.0,0.0,0.0,0.0,0.0, 1557936053666, 12:00:53.666
85, 61699.86, 49231.97, -16035.16, -20876.28, 7146.99, -2757.85, 7756.26, 2301.69, 0.010, 0.820, 0.546,0.0,0.0,0.0,0.0,0.0,0.0,0.0,0.0,0.0,0.0, 1557936053666, 12:00:53.666
86, 62303.70, 49968.48, -16249.76, -21003.82, 6902.78, -3068.47, 7478.16, 2014.36, 0.010, 0.820, 0.546,0.0,0.0,0.0,0.0,0.0,0.0,0.0,0.0,0.0,0.0, 1557936053673, 12:00:53.673
87, 62335.73, 50005.01, -16407.28, -21198.82, 6739.01, -3229.47, 7323.08, 1848.20, 0.022, 0.802, 0.556,0.0,0.0,0.0,0.0,0.0,0.0,0.0,0.0,0.0,0.0, 1557936053673, 12:00:53.673
88, 61775.77, 49328.04, -16275.62, -21176.20, 6900.72, -3004.01, 7515.04, 2046.50, 0.022, 0.802, 0.556,0.0,0.0,0.0,0.0,0.0,0.0,0.0,0.0,0.0,0.0, 1557936053681, 12:00:53.681
89, 61651.18, 49151.33, -16015.49, -20893.00, 7167.06, -2736.86, 7780.51, 2323.49, 0.022, 0.802, 0.556,0.0,0.0,0.0,0.0,0.0,0.0,0.0,0.0,0.0,0.0, 1557936053681, 12:00:53.681
90, 62292.32, 49918.73, -16171.69, -20942.58, 6973.81, -3004.66, 7560.68, 2100.35, 0.022, 0.802, 0.556,0.0,0.0,0.0,0.0,0.0,0.0,0.0,0.0,0.0,0.0, 1557936053689, 12:00:53.689
91, 62407.88, 50075.24, -16387.20, -21182.30, 6749.71, -3221.87, 7336.29, 1871.24, 0.022, 0.802, 0.556,0.0,0.0,0.0,0.0,0.0,0.0,0.0,0.0,0.0,0.0, 1557936053689, 12:00:53.689
92, 61887.93, 49445.75, -16369.05, -21261.22, 6822.31, -3101.46, 7426.03, 1958.95, 0.022, 0.802, 0.556,0.0,0.0,0.0,0.0,0.0,0.0,0.0,0.0,0.0,0.0, 1557936053695, 12:00:53.695
93, 61618.95, 49076.90, -16023.27, -20931.34, 7161.66, -2737.60, 7774.18, 2322.41, 0.022, 0.802, 0.556,0.0,0.0,0.0,0.0,0.0,0.0,0.0,0.0,0.0,0.0, 1557936053703, 12:00:53.703
94, 62215.77, 49805.74, -16112.01, -20917.63, 7028.77, -2941.91, 7618.82, 2167.02, 0.022, 0.802, 0.556,0.0,0.0,0.0,0.0,0.0,0.0,0.0,0.0,0.0,0.0, 1557936053703, 12:00:53.703
95, 62475.05, 50125.02, -16327.37, -21165.56, 6796.85, -3173.63, 7374.60, 1921.20, 0.022, 0.802, 0.556,0.0,0.0,0.0,0.0,0.0,0.0,0.0,0.0,0.0,0.0, 1557936053710, 12:00:53.710
96, 62050.27, 49627.00, -16342.16, -21269.00, 6800.18, -3138.32, 7396.24, 1946.52, 0.022, 0.802, 0.556,0.0,0.0,0.0,0.0,0.0,0.0,0.0,0.0,0.0,0.0, 1557936053710, 12:00:53.710
97, 61622.53, 49069.21, -16022.09, -20983.17, 7132.17, -2773.31, 7747.65, 2309.34, -0.002, 0.806, 0.556,0.0,0.0,0.0,0.0,0.0,0.0,0.0,0.0,0.0,0.0, 1557936053718, 12:00:53.718
98, 62151.48, 49691.93, -15992.09, -20852.93, 7114.47, -2847.43, 7689.58, 2241.68, -0.002, 0.806, 0.556,0.0,0.0,0.0,0.0,0.0,0.0,0.0,0.0,0.0,0.0, 1557936053718, 12:00:53.718
99, 62504.26, 50144.37, -16269.86, -21097.97, 6827.03, -3129.51, 7395.70, 1954.19, -0.002, 0.806, 0.556,0.0,0.0,0.0,0.0,0.0,0.0,0.0,0.0,0.0,0.0, 1557936053727, 12:00:53.727
100, 62178.04, 49769.82, -16376.05, -21260.60, 6760.04, -3161.74, 7353.46, 1922.34, -0.002, 0.806, 0.556,0.0,0.0,0.0,0.0,0.0,0.0,0.0,0.0,0.0,0.0, 1557936053728, 12:00:53.728
101, 61648.61, 49081.01, -16087.27, -21088.67, 7064.78, -2802.48, 7680.04, 2256.07, -0.002, 0.806, 0.556,0.0,0.0,0.0,0.0,0.0,0.0,0.0,0.0,0.0,0.0, 1557936053733, 12:00:53.733
102, 62031.59, 49552.00, -15988.00, -20855.50, 7130.77, -2807.54, 7718.46, 2290.32, -0.002, 0.806, 0.556,0.0,0.0,0.0,0.0,0.0,0.0,0.0,0.0,0.0,0.0, 1557936053733, 12:00:53.733
103, 62508.37, 50142.25, -16243.91, -21052.77, 6854.48, -3097.66, 7441.41, 2002.92, -0.002, 0.806, 0.556,0.0,0.0,0.0,0.0,0.0,0.0,0.0,0.0,0.0,0.0, 1557936053741, 12:00:53.741
104, 62327.03, 49927.18, -16374.42, -21225.98, 6776.09, -3163.55, 7357.72, 1920.60, -0.002, 0.806, 0.556,0.0,0.0,0.0,0.0,0.0,0.0,0.0,0.0,0.0,0.0, 1557936053741, 12:00:53.741
105, 61709.88, 49145.70, -16117.10, -21084.45, 7048.80, -2830.04, 7657.60, 2236.76, -0.002, 0.806, 0.556,0.0,0.0,0.0,0.0,0.0,0.0,0.0,0.0,0.0,0.0, 1557936053748, 12:00:53.748
106, 61909.43, 49361.90, -16000.43, -20868.53, 7163.02, -2765.87, 7757.87, 2334.64, -0.002, 0.806, 0.556,0.0,0.0,0.0,0.0,0.0,0.0,0.0,0.0,0.0,0.0, 1557936053749, 12:00:53.749
107, 62504.39, 50095.09, -16182.39, -20979.93, 6923.81, -3073.52, 7502.90, 2064.05, -0.012, 0.814, 0.560,0.0,0.0,0.0,0.0,0.0,0.0,0.0,0.0,0.0,0.0, 1557936053755, 12:00:53.755
108, 62388.37, 49999.42, -16350.34, -21195.22, 6763.53, -3193.82, 7355.27, 1918.54, -0.012, 0.814, 0.560,0.0,0.0,0.0,0.0,0.0,0.0,0.0,0.0,0.0,0.0, 1557936053763, 12:00:53.763
109, 61823.54, 49285.10, -16130.05, -21079.62, 7005.10, -2887.44, 7625.21, 2195.41, -0.012, 0.814, 0.560,0.0,0.0,0.0,0.0,0.0,0.0,0.0,0.0,0.0,0.0, 1557936053763, 12:00:53.763
110, 61891.31, 49291.72, -15908.61, -20784.33, 7248.42, -2684.15, 7833.37, 2405.70, -0.012, 0.814, 0.560,0.0,0.0,0.0,0.0,0.0,0.0,0.0,0.0,0.0,0.0, 1557936053772, 12:00:53.772
111, 62491.99, 50034.78, -16104.68, -20912.43, 6989.35, -3003.78, 7553.24, 2123.33, -0.012, 0.814, 0.560,0.0,0.0,0.0,0.0,0.0,0.0,0.0,0.0,0.0,0.0, 1557936053772, 12:00:53.772
112, 62503.57, 50075.89, -16314.07, -21135.79, 6792.14, -3199.29, 7360.88, 1928.53, -0.012, 0.814, 0.560,0.0,0.0,0.0,0.0,0.0,0.0,0.0,0.0,0.0,0.0, 1557936053779, 12:00:53.779
113, 61954.47, 49385.26, -16183.24, -21125.46, 6953.16, -3005.62, 7537.39, 2111.64, -0.012, 0.814, 0.560,0.0,0.0,0.0,0.0,0.0,0.0,0.0,0.0,0.0,0.0, 1557936053779, 12:00:53.779
114, 61808.98, 49179.94, -15916.54, -20823.71, 7240.98, -2680.13, 7827.87, 2412.94, -0.012, 0.814, 0.560,0.0,0.0,0.0,0.0,0.0,0.0,0.0,0.0,0.0,0.0, 1557936053787, 12:00:53.787
115, 62455.73, 49946.91, -16060.00, -20873.02, 7040.35, -2940.28, 7605.83, 2182.60, -0.012, 0.814, 0.560,0.0,0.0,0.0,0.0,0.0,0.0,0.0,0.0,0.0,0.0, 1557936053787, 12:00:53.787
116, 62622.46, 50163.04, -16264.45, -21080.98, 6841.02, -3151.24, 7402.85, 1971.27, -0.012, 0.814, 0.560,0.0,0.0,0.0,0.0,0.0,0.0,0.0,0.0,0.0,0.0, 1557936053795, 12:00:53.795
117, 62127.30, 49566.80, -16233.07, -21129.39, 6933.11, -3016.12, 7520.45, 2088.35, -0.012, 0.810, 0.564,0.0,0.0,0.0,0.0,0.0,0.0,0.0,0.0,0.0,0.0, 1557936053795, 12:00:53.795
118, 61802.01, 49141.02, -15918.93, -20846.85, 7253.43, -2667.88, 7848.86, 2424.47, -0.012, 0.810, 0.564,0.0,0.0,0.0,0.0,0.0,0.0,0.0,0.0,0.0,0.0, 1557936053801, 12:00:53.801
119, 62393.06, 49852.57, -15982.12, -20806.79, 7131.52, -2874.01, 7697.02, 2260.16, -0.012, 0.810, 0.564,0.0,0.0,0.0,0.0,0.0,0.0,0.0,0.0,0.0,0.0, 1557936053801, 12:00:53.801
120, 62706.77, 50216.70, -16215.92, -21029.71, 6883.51, -3100.48, 7452.52, 2010.94, -0.012, 0.810, 0.564,0.0,0.0,0.0,0.0,0.0,0.0,0.0,0.0,0.0,0.0, 1557936053808, 12:00:53.808
121, 62345.16, 49774.72, -16214.13, -21098.79, 6925.98, -3024.88, 7518.23, 2076.66, -0.012, 0.810, 0.564,0.0,0.0,0.0,0.0,0.0,0.0,0.0,0.0,0.0,0.0, 1557936053808, 12:00:53.808
122, 61907.09, 49191.09, -15880.58, -20820.36, 7268.79, -2645.02, 7876.24, 2447.69, -0.012, 0.810, 0.564,0.0,0.0,0.0,0.0,0.0,0.0,0.0,0.0,0.0,0.0, 1557936053815, 12:00:53.815
123, 62372.23, 49759.88, -15909.32, -20720.69, 7200.75, -2760.02, 7788.96, 2365.51, -0.012, 0.810, 0.564,0.0,0.0,0.0,0.0,0.0,0.0,0.0,0.0,0.0,0.0, 1557936053815, 12:00:53.815
124, 62779.79, 50267.91, -16163.69, -20949.46, 6919.83, -3055.17, 7496.69, 2076.68, -0.012, 0.810, 0.564,0.0,0.0,0.0,0.0,0.0,0.0,0.0,0.0,0.0,0.0, 1557936053826, 12:00:53.826
125, 62490.38, 49915.31, -16246.86, -21088.83, 6869.34, -3096.14, 7457.12, 2030.41, -0.012, 0.810, 0.564,0.0,0.0,0.0,0.0,0.0,0.0,0.0,0.0,0.0,0.0, 1557936053832, 12:00:53.832
126, 61956.35, 49226.70, -15943.05, -20850.15, 7198.04, -2690.50, 7818.84, 2406.52, -0.012, 0.810, 0.564,0.0,0.0,0.0,0.0,0.0,0.0,0.0,0.0,0.0,0.0, 1557936053833, 12:00:53.833
127, 62324.08, 49651.98, -15860.82, -20663.31, 7258.59, -2697.27, 7823.22, 2411.42, 0.040, 0.810, 0.570,0.0,0.0,0.0,0.0,0.0,0.0,0.0,0.0,0.0,0.0, 1557936053838, 12:00:53.838
128, 62792.75, 50233.29, -16147.35, -20906.41, 6960.13, -3070.32, 7479.81, 2047.58, 0.040, 0.810, 0.570,0.0,0.0,0.0,0.0,0.0,0.0,0.0,0.0,0.0,0.0, 1557936053839, 12:00:53.839
129, 62630.21, 50044.08, -16272.54, -21062.25, 6874.70, -3162.37, 7397.73, 1941.34, 0.040, 0.810, 0.570,0.0,0.0,0.0,0.0,0.0,0.0,0.0,0.0,0.0,0.0, 1557936053847, 12:00:53.847
130, 62003.20, 49263.89, -16060.82, -20910.88, 7141.25, -2829.53, 7691.41, 2236.25, 0.040, 0.810, 0.570,0.0,0.0,0.0,0.0,0.0,0.0,0.0,0.0,0.0,0.0, 1557936053847, 12:00:53.847
131, 62197.32, 49463.18, -15899.60, -20659.74, 7275.36, -2718.46, 7812.56, 2362.20, 0.040, 0.810, 0.570,0.0,0.0,0.0,0.0,0.0,0.0,0.0,0.0,0.0,0.0, 1557936053854, 12:00:53.854
132, 62810.32, 50216.12, -16140.57, -20823.35, 6996.36, -3065.50, 7515.62, 2041.38, 0.040, 0.810, 0.570,0.0,0.0,0.0,0.0,0.0,0.0,0.0,0.0,0.0,0.0, 1557936053854, 12:00:53.854
133, 62709.16, 50136.97, -16333.25, -21036.59, 6837.04, -3200.59, 7363.87, 1864.78, 0.040, 0.810, 0.570,0.0,0.0,0.0,0.0,0.0,0.0,0.0,0.0,0.0,0.0, 1557936053861, 12:00:53.861
134, 62100.32, 49374.04, -16175.40, -20945.37, 7057.85, -2916.12, 7616.20, 2113.96, 0.040, 0.810, 0.570,0.0,0.0,0.0,0.0,0.0,0.0,0.0,0.0,0.0,0.0, 1557936053861, 12:00:53.861
135, 62125.26, 49336.87, -15921.53, -20627.22, 7314.00, -2682.14, 7862.32, 2356.88, 0.040, 0.810, 0.570,0.0,0.0,0.0,0.0,0.0,0.0,0.0,0.0,0.0,0.0, 1557936053868, 12:00:53.868
136, 62775.05, 50151.93, -16117.26, -20725.54, 7073.46, -2981.19, 7593.25, 2079.63, 0.040, 0.810, 0.570,0.0,0.0,0.0,0.0,0.0,0.0,0.0,0.0,0.0,0.0, 1557936053868, 12:00:53.868
137, 62798.81, 50218.33, -16342.08, -20955.81, 6863.84, -3194.00, 7372.34, 1852.38, 0.156, 0.812, 0.568,0.0,0.0,0.0,0.0,0.0,0.0,0.0,0.0,0.0,0.0, 1557936053876, 12:00:53.876
138, 62187.42, 49466.93, -16289.48, -20970.43, 6980.81, -3001.55, 7504.35, 1994.40, 0.156, 0.812, 0.568,0.0,0.0,0.0,0.0,0.0,0.0,0.0,0.0,0.0,0.0, 1557936053877, 12:00:53.877
139, 62011.65, 49208.14, -15997.99, -20656.05, 7288.50, -2671.44, 7802.46, 2292.62, 0.156, 0.812, 0.568,0.0,0.0,0.0,0.0,0.0,0.0,0.0,0.0,0.0,0.0, 1557936053883, 12:00:53.883
140, 62655.58, 50002.66, -16133.04, -20704.26, 7102.40, -2938.27, 7573.96, 2046.03, 0.156, 0.812, 0.568,0.0,0.0,0.0,0.0,0.0,0.0,0.0,0.0,0.0,0.0, 1557936053890, 12:00:53.890
141, 62823.73, 50234.23, -16365.66, -20958.36, 6861.72, -3195.63, 7320.80, 1791.36, 0.156, 0.812, 0.568,0.0,0.0,0.0,0.0,0.0,0.0,0.0,0.0,0.0,0.0, 1557936053890, 12:00:53.890
142, 62343.26, 49650.29, -16319.12, -21008.16, 6968.07, -3055.55, 7444.72, 1919.32, 0.156, 0.812, 0.568,0.0,0.0,0.0,0.0,0.0,0.0,0.0,0.0,0.0,0.0, 1557936053898, 12:00:53.898
143, 62014.55, 49175.04, -15987.53, -20719.02, 7325.96, -2679.24, 7809.70, 2292.24, 0.156, 0.812, 0.568,0.0,0.0,0.0,0.0,0.0,0.0,0.0,0.0,0.0,0.0, 1557936053898, 12:00:53.898
144, 62607.10, 49872.82, -16036.95, -20706.25, 7197.73, -2881.97, 7650.80, 2122.39, 0.156, 0.812, 0.568,0.0,0.0,0.0,0.0,0.0,0.0,0.0,0.0,0.0,0.0, 1557936053906, 12:00:53.906
145, 62919.84, 50270.77, -16258.55, -20964.39, 6938.63, -3167.76, 7388.41, 1839.10, 0.156, 0.812, 0.568,0.0,0.0,0.0,0.0,0.0,0.0,0.0,0.0,0.0,0.0, 1557936053906, 12:00:53.906
146, 62514.52, 49803.02, -16299.20, -21084.87, 6933.09, -3121.94, 7413.22, 1862.01, 0.156, 0.812, 0.568,0.0,0.0,0.0,0.0,0.0,0.0,0.0,0.0,0.0,0.0, 1557936053913, 12:00:53.913
147, 62023.88, 49163.33, -15986.79, -20830.48, 7293.69, -2718.17, 7792.44, 2247.76, 0.152, 0.796, 0.570,0.0,0.0,0.0,0.0,0.0,0.0,0.0,0.0,0.0,0.0, 1557936053913, 12:00:53.913
148, 62531.53, 49741.77, -15928.63, -20706.95, 7271.47, -2811.09, 7742.96, 2194.47, 0.152, 0.796, 0.570,0.0,0.0,0.0,0.0,0.0,0.0,0.0,0.0,0.0,0.0, 1557936053920, 12:00:53.920
149, 62984.89, 50305.30, -16158.12, -20946.40, 6968.74, -3121.11, 7429.25, 1891.63, 0.152, 0.796, 0.570,0.0,0.0,0.0,0.0,0.0,0.0,0.0,0.0,0.0,0.0, 1557936053920, 12:00:53.920
150, 62681.11, 49946.18, -16256.65, -21119.94, 6889.77, -3159.42, 7383.29, 1845.76, 0.152, 0.796, 0.570,0.0,0.0,0.0,0.0,0.0,0.0,0.0,0.0,0.0,0.0, 1557936053929, 12:00:53.929
151, 62093.79, 49194.33, -15985.77, -20942.91, 7201.26, -2775.15, 7738.93, 2206.97, 0.152, 0.796, 0.570,0.0,0.0,0.0,0.0,0.0,0.0,0.0,0.0,0.0,0.0, 1557936053929, 12:00:53.929
152, 62458.98, 49578.43, -15829.44, -20752.43, 7276.32, -2738.56, 7789.45, 2266.85, 0.152, 0.796, 0.570,0.0,0.0,0.0,0.0,0.0,0.0,0.0,0.0,0.0,0.0, 1557936053936, 12:00:53.936
153, 62999.60, 50230.63, -16071.51, -21002.75, 6940.78, -3107.45, 7438.73, 1914.16, 0.152, 0.796, 0.570,0.0,0.0,0.0,0.0,0.0,0.0,0.0,0.0,0.0,0.0, 1557936053936, 12:00:53.936
154, 62825.23, 50040.88, -16178.48, -21179.93, 6839.43, -3191.85, 7361.50, 1824.13, 0.152, 0.796, 0.570,0.0,0.0,0.0,0.0,0.0,0.0,0.0,0.0,0.0,0.0, 1557936053943, 12:00:53.943
155, 62184.14, 49252.36, -15955.50, -21051.68, 7114.81, -2845.89, 7692.11, 2169.91, 0.152, 0.796, 0.570,0.0,0.0,0.0,0.0,0.0,0.0,0.0,0.0,0.0,0.0, 1557936053950, 12:00:53.950
156, 62315.52, 49391.79, -15779.97, -20833.97, 7253.52, -2740.52, 7832.41, 2311.97, 0.152, 0.796, 0.570,0.0,0.0,0.0,0.0,0.0,0.0,0.0,0.0,0.0,0.0, 1557936053950, 12:00:53.950
157, 62933.97, 50173.72, -16000.65, -21009.23, 6954.21, -3080.76, 7516.51, 1988.25, 0.088, 0.790, 0.598,0.0,0.0,0.0,0.0,0.0,0.0,0.0,0.0,0.0,0.0, 1557936053958, 12:00:53.958
158, 62881.87, 50149.71, -16159.22, -21216.34, 6814.44, -3217.20, 7381.24, 1853.65, 0.088, 0.790, 0.598,0.0,0.0,0.0,0.0,0.0,0.0,0.0,0.0,0.0,0.0, 1557936053958, 12:00:53.958
159, 62290.02, 49426.95, -15964.98, -21123.02, 7067.80, -2882.86, 7671.63, 2169.77, 0.088, 0.790, 0.598,0.0,0.0,0.0,0.0,0.0,0.0,0.0,0.0,0.0,0.0, 1557936053965, 12:00:53.965
160, 62297.28, 49396.64, -15673.76, -20795.73, 7344.18, -2602.88, 7940.50, 2450.56, 0.088, 0.790, 0.598,0.0,0.0,0.0,0.0,0.0,0.0,0.0,0.0,0.0,0.0, 1557936053966, 12:00:53.966
161, 62923.22, 50199.58, -15885.21, -20923.49, 7065.12, -2937.85, 7632.23, 2137.03, 0.088, 0.790, 0.598,0.0,0.0,0.0,0.0,0.0,0.0,0.0,0.0,0.0,0.0, 1557936053973, 12:00:53.973
162, 62937.19, 50273.86, -16130.90, -21188.47, 6825.66, -3183.27, 7395.77, 1901.17, 0.088, 0.790, 0.598,0.0,0.0,0.0,0.0,0.0,0.0,0.0,0.0,0.0,0.0, 1557936053973, 12:00:53.973
163, 62350.70, 49562.93, -16067.19, -21208.83, 6953.54, -2986.13, 7560.81, 2071.98, 0.088, 0.790, 0.598,0.0,0.0,0.0,0.0,0.0,0.0,0.0,0.0,0.0,0.0, 1557936053982, 12:00:53.982
164, 62151.13, 49268.85, -15752.82, -20867.63, 7281.91, -2636.97, 7903.02, 2423.33, 0.088, 0.790, 0.598,0.0,0.0,0.0,0.0,0.0,0.0,0.0,0.0,0.0,0.0, 1557936053982, 12:00:53.982
165, 62789.60, 50066.45, -15884.47, -20868.82, 7076.25, -2910.15, 7662.29, 2177.80, 0.088, 0.790, 0.598,0.0,0.0,0.0,0.0,0.0,0.0,0.0,0.0,0.0,0.0, 1557936053989, 12:00:53.989
166, 62999.57, 50360.98, -16105.26, -21091.53, 6831.34, -3176.38, 7396.84, 1910.78, 0.088, 0.790, 0.598,0.0,0.0,0.0,0.0,0.0,0.0,0.0,0.0,0.0,0.0, 1557936053989, 12:00:53.989
167, 62499.12, 49764.68, -16111.36, -21171.93, 6892.41, -3084.90, 7482.49, 1998.60, 0.044, 0.796, 0.610,0.0,0.0,0.0,0.0,0.0,0.0,0.0,0.0,0.0,0.0, 1557936053995, 12:00:53.995
168, 62106.24, 49237.85, -15799.71, -20882.65, 7234.72, -2710.19, 7854.16, 2373.38, 0.044, 0.796, 0.610,0.0,0.0,0.0,0.0,0.0,0.0,0.0,0.0,0.0,0.0, 1557936053996, 12:00:53.996
169, 62690.11, 49942.18, -15849.11, -20801.79, 7124.77, -2897.32, 7697.11, 2209.40, 0.044, 0.796, 0.610,0.0,0.0,0.0,0.0,0.0,0.0,0.0,0.0,0.0,0.0, 1557936054002, 12:00:54.002
170, 63050.00, 50395.27, -16094.87, -21028.28, 6849.94, -3191.40, 7407.55, 1915.97, 0.044, 0.796, 0.610,0.0,0.0,0.0,0.0,0.0,0.0,0.0,0.0,0.0,0.0, 1557936054010, 12:00:54.010
171, 62666.67, 49945.44, -16153.49, -21149.35, 6851.97, -3162.93, 7432.49, 1930.16, 0.044, 0.796, 0.610,0.0,0.0,0.0,0.0,0.0,0.0,0.0,0.0,0.0,0.0, 1557936054010, 12:00:54.010
172, 62179.42, 49304.68, -15809.03, -20864.48, 7230.41, -2724.36, 7839.56, 2344.65, 0.044, 0.796, 0.610,0.0,0.0,0.0,0.0,0.0,0.0,0.0,0.0,0.0,0.0, 1557936054018, 12:00:54.018
173, 62669.80, 49870.16, -15754.83, -20689.85, 7238.23, -2782.57, 7817.88, 2313.25, 0.044, 0.796, 0.610,0.0,0.0,0.0,0.0,0.0,0.0,0.0,0.0,0.0,0.0, 1557936054018, 12:00:54.018
174, 63124.92, 50448.54, -16027.47, -20925.86, 6926.63, -3121.64, 7486.85, 1981.97, 0.044, 0.796, 0.610,0.0,0.0,0.0,0.0,0.0,0.0,0.0,0.0,0.0,0.0, 1557936054025, 12:00:54.025
175, 62830.93, 50127.50, -16143.50, -21103.67, 6840.95, -3194.31, 7410.56, 1900.66, 0.044, 0.796, 0.610,0.0,0.0,0.0,0.0,0.0,0.0,0.0,0.0,0.0,0.0, 1557936054025, 12:00:54.025
176, 62254.43, 49368.09, -15855.30, -20898.57, 7170.64, -2787.20, 7777.42, 2280.64, 0.044, 0.796, 0.610,0.0,0.0,0.0,0.0,0.0,0.0,0.0,0.0,0.0,0.0, 1557936054033, 12:00:54.033
177, 62570.84, 49706.25, -15730.11, -20684.88, 7260.25, -2754.99, 7839.94, 2340.52, 0.056, 0.796, 0.612,0.0,0.0,0.0,0.0,0.0,0.0,0.0,0.0,0.0,0.0, 1557936054034, 12:00:54.034
178, 63146.16, 50419.59, -15976.20, -20879.59, 6957.96, -3098.38, 7529.10, 2016.57, 0.056, 0.796, 0.612,0.0,0.0,0.0,0.0,0.0,0.0,0.0,0.0,0.0,0.0, 1557936054041, 12:00:54.041
179, 63002.61, 50268.69, -16107.16, -21050.02, 6863.39, -3185.37, 7445.14, 1917.85, 0.056, 0.796, 0.612,0.0,0.0,0.0,0.0,0.0,0.0,0.0,0.0,0.0,0.0, 1557936054041, 12:00:54.041
180, 62385.55, 49482.54, -15893.27, -20924.61, 7134.19, -2834.80, 7753.89, 2233.34, 0.056, 0.796, 0.612,0.0,0.0,0.0,0.0,0.0,0.0,0.0,0.0,0.0,0.0, 1557936054049, 12:00:54.049
181, 62530.66, 49601.61, -15686.90, -20650.02, 7313.56, -2678.16, 7924.65, 2400.78, 0.056, 0.796, 0.612,0.0,0.0,0.0,0.0,0.0,0.0,0.0,0.0,0.0,0.0, 1557936054050, 12:00:54.050
182, 63140.41, 50371.13, -15957.83, -20843.36, 6985.77, -3065.25, 7567.00, 2026.83, 0.056, 0.796, 0.612,0.0,0.0,0.0,0.0,0.0,0.0,0.0,0.0,0.0,0.0, 1557936054056, 12:00:54.056
183, 63101.50, 50341.47, -16151.86, -21070.07, 6812.81, -3234.05, 7398.20, 1850.32, 0.056, 0.796, 0.612,0.0,0.0,0.0,0.0,0.0,0.0,0.0,0.0,0.0,0.0, 1557936054056, 12:00:54.056
184, 62476.43, 49561.66, -16034.05, -21047.29, 6983.78, -2984.09, 7602.61, 2074.87, 0.056, 0.796, 0.612,0.0,0.0,0.0,0.0,0.0,0.0,0.0,0.0,0.0,0.0, 1557936054063, 12:00:54.063
185, 62438.14, 49456.14, -15742.74, -20728.00, 7266.08, -2700.36, 7888.09, 2364.81, 0.056, 0.796, 0.612,0.0,0.0,0.0,0.0,0.0,0.0,0.0,0.0,0.0,0.0, 1557936054063, 12:00:54.063
186, 63103.69, 50269.25, -15921.39, -20820.29, 7031.28, -3013.15, 7613.32, 2074.64, 0.056, 0.796, 0.612,0.0,0.0,0.0,0.0,0.0,0.0,0.0,0.0,0.0,0.0, 1557936054071, 12:00:54.071
187, 63202.19, 50403.18, -16133.85, -21063.88, 6811.07, -3230.63, 7399.95, 1852.38, 0.042, 0.772, 0.622,0.0,0.0,0.0,0.0,0.0,0.0,0.0,0.0,0.0,0.0, 1557936054078, 12:00:54.078
188, 62648.94, 49728.34, -16063.55, -21087.89, 6926.87, -3050.72, 7548.50, 2008.04, 0.042, 0.772, 0.622,0.0,0.0,0.0,0.0,0.0,0.0,0.0,0.0,0.0,0.0, 1557936054078, 12:00:54.078
189, 62444.45, 49409.76, -15711.11, -20739.13, 7283.63, -2677.49, 7905.81, 2381.13, 0.042, 0.772, 0.622,0.0,0.0,0.0,0.0,0.0,0.0,0.0,0.0,0.0,0.0, 1557936054086, 12:00:54.086
190, 63112.36, 50210.96, -15799.04, -20718.75, 7134.63, -2905.55, 7724.49, 2183.12, 0.042, 0.772, 0.622,0.0,0.0,0.0,0.0,0.0,0.0,0.0,0.0,0.0,0.0, 1557936054086, 12:00:54.086
191, 63335.23, 50504.57, -16043.75, -20973.02, 6870.99, -3179.94, 7470.44, 1915.23, 0.042, 0.772, 0.622,0.0,0.0,0.0,0.0,0.0,0.0,0.0,0.0,0.0,0.0, 1557936054093, 12:00:54.093
192, 62866.87, 49943.65, -16039.32, -21045.04, 6927.72, -3072.45, 7556.36, 2011.72, 0.042, 0.772, 0.622,0.0,0.0,0.0,0.0,0.0,0.0,0.0,0.0,0.0,0.0, 1557936054094, 12:00:54.094
193, 62472.32, 49400.48, -15708.85, -20744.03, 7281.62, -2670.72, 7919.76, 2394.90, 0.042, 0.772, 0.622,0.0,0.0,0.0,0.0,0.0,0.0,0.0,0.0,0.0,0.0, 1557936054102, 12:00:54.102
194, 63028.99, 50060.66, -15753.49, -20680.37, 7174.89, -2856.15, 7773.29, 2235.31, 0.042, 0.772, 0.622,0.0,0.0,0.0,0.0,0.0,0.0,0.0,0.0,0.0,0.0, 1557936054102, 12:00:54.102
195, 63395.58, 50529.31, -16009.75, -20928.36, 6887.78, -3166.95, 7471.90, 1924.40, 0.042, 0.772, 0.622,0.0,0.0,0.0,0.0,0.0,0.0,0.0,0.0,0.0,0.0, 1557936054108, 12:00:54.108
196, 63003.38, 50087.02, -16096.63, -21077.11, 6837.80, -3172.79, 7445.23, 1909.42, 0.042, 0.772, 0.622,0.0,0.0,0.0,0.0,0.0,0.0,0.0,0.0,0.0,0.0, 1557936054108, 12:00:54.108
197, 62480.14, 49404.35, -15785.61, -20832.59, 7181.44, -2759.19, 7808.87, 2296.80, 0.056, 0.770, 0.628,0.0,0.0,0.0,0.0,0.0,0.0,0.0,0.0,0.0,0.0, 1557936054116, 12:00:54.116
198, 62921.68, 49919.45, -15722.31, -20669.62, 7208.53, -2801.61, 7805.68, 2280.32, 0.056, 0.770, 0.628,0.0,0.0,0.0,0.0,0.0,0.0,0.0,0.0,0.0,0.0, 1557936054116, 12:00:54.116
199, 63371.46, 50499.25, -16011.56, -20927.13, 6881.30, -3169.92, 7475.18, 1926.52, 0.056, 0.770, 0.628,0.0,0.0,0.0,0.0,0.0,0.0,0.0,0.0,0.0,0.0, 1557936054124, 12:00:54.124
200, 63105.16, 50198.20, -16137.42, -21104.11, 6792.85, -3246.43, 7400.06, 1838.30, 0.056, 0.770, 0.628,0.0,0.0,0.0,0.0,0.0,0.0,0.0,0.0,0.0,0.0, 1557936054125, 12:00:54.125
201, 62510.94, 49439.33, -15856.46, -20897.96, 7135.82, -2818.78, 7781.38, 2250.51, 0.056, 0.770, 0.628,0.0,0.0,0.0,0.0,0.0,0.0,0.0,0.0,0.0,0.0, 1557936054131, 12:00:54.131
202, 62809.34, 49766.67, -15697.18, -20654.22, 7263.67, -2728.83, 7891.84, 2357.75, 0.056, 0.770, 0.628,0.0,0.0,0.0,0.0,0.0,0.0,0.0,0.0,0.0,0.0, 1557936054138, 12:00:54.138
203, 63386.77, 50473.37, -15962.86, -20858.07, 6940.06, -3097.55, 7545.99, 1991.43, 0.056, 0.770, 0.628,0.0,0.0,0.0,0.0,0.0,0.0,0.0,0.0,0.0,0.0, 1557936054138, 12:00:54.138
204, 63225.33, 50306.20, -16145.27, -21070.12, 6780.83, -3232.20, 7395.28, 1833.02, 0.056, 0.770, 0.628,0.0,0.0,0.0,0.0,0.0,0.0,0.0,0.0,0.0,0.0, 1557936054146, 12:00:54.146
205, 62605.18, 49520.89, -15935.12, -20938.85, 7059.11, -2881.79, 7703.33, 2148.63, 0.056, 0.770, 0.628,0.0,0.0,0.0,0.0,0.0,0.0,0.0,0.0,0.0,0.0, 1557936054147, 12:00:54.147
206, 62690.61, 49585.87, -15701.61, -20646.28, 7270.17, -2701.95, 7897.90, 2341.17, 0.056, 0.770, 0.628,0.0,0.0,0.0,0.0,0.0,0.0,0.0,0.0,0.0,0.0, 1557936054154, 12:00:54.154
207, 63352.80, 50411.36, -15912.81, -20783.70, 6983.27, -3050.05, 7580.66, 2013.49, 0.062, 0.760, 0.622,0.0,0.0,0.0,0.0,0.0,0.0,0.0,0.0,0.0,0.0, 1557936054154, 12:00:54.154
208, 63342.70, 50421.13, -16093.17, -20994.39, 6817.06, -3221.65, 7416.64, 1842.43, 0.062, 0.760, 0.622,0.0,0.0,0.0,0.0,0.0,0.0,0.0,0.0,0.0,0.0, 1557936054161, 12:00:54.161
209, 62734.17, 49669.82, -15966.36, -20948.63, 6997.39, -2968.74, 7629.92, 2070.62, 0.062, 0.760, 0.622,0.0,0.0,0.0,0.0,0.0,0.0,0.0,0.0,0.0,0.0, 1557936054161, 12:00:54.161
210, 62642.15, 49501.69, -15687.12, -20645.10, 7278.09, -2701.59, 7891.80, 2339.89, 0.062, 0.760, 0.622,0.0,0.0,0.0,0.0,0.0,0.0,0.0,0.0,0.0,0.0, 1557936054168, 12:00:54.168
211, 63312.45, 50326.88, -15846.63, -20719.64, 7053.92, -2997.99, 7631.09, 2068.18, 0.062, 0.760, 0.622,0.0,0.0,0.0,0.0,0.0,0.0,0.0,0.0,0.0,0.0, 1557936054169, 12:00:54.169
212, 63427.30, 50495.74, -16075.49, -20969.65, 6823.61, -3229.63, 7400.15, 1834.16, 0.062, 0.760, 0.622,0.0,0.0,0.0,0.0,0.0,0.0,0.0,0.0,0.0,0.0, 1557936054176, 12:00:54.176
213, 62880.71, 49836.39, -16020.63, -21002.12, 6929.09, -3064.40, 7537.81, 1980.57, 0.062, 0.760, 0.622,0.0,0.0,0.0,0.0,0.0,0.0,0.0,0.0,0.0,0.0, 1557936054176, 12:00:54.176
214, 62616.98, 49452.70, -15684.84, -20684.08, 7264.16, -2697.65, 7878.56, 2342.49, 0.062, 0.760, 0.622,0.0,0.0,0.0,0.0,0.0,0.0,0.0,0.0,0.0,0.0, 1557936054184, 12:00:54.184
215, 63239.52, 50210.71, -15781.05, -20693.29, 7093.82, -2936.82, 7672.10, 2131.55, 0.062, 0.760, 0.622,0.0,0.0,0.0,0.0,0.0,0.0,0.0,0.0,0.0,0.0, 1557936054184, 12:00:54.184
216, 63507.50, 50557.48, -16013.50, -20939.05, 6845.76, -3201.13, 7422.25, 1875.04, 0.062, 0.760, 0.622,0.0,0.0,0.0,0.0,0.0,0.0,0.0,0.0,0.0,0.0, 1557936054190, 12:00:54.190
217, 63025.23, 49995.33, -16060.80, -21052.39, 6856.13, -3151.31, 7458.91, 1914.85, 0.062, 0.760, 0.622,0.0,0.0,0.0,0.0,0.0,0.0,0.0,0.0,0.0,0.0, 1557936054198, 12:00:54.198
218, 62574.91, 49384.46, -15758.34, -20790.72, 7178.46, -2774.45, 7795.91, 2276.21, 0.072, 0.772, 0.610,0.0,0.0,0.0,0.0,0.0,0.0,0.0,0.0,0.0,0.0, 1557936054199, 12:00:54.199
219, 63126.00, 50037.69, -15752.37, -20697.11, 7118.87, -2900.50, 7699.46, 2177.02, 0.072, 0.772, 0.610,0.0,0.0,0.0,0.0,0.0,0.0,0.0,0.0,0.0,0.0, 1557936054206, 12:00:54.206
220, 63536.93, 50555.46, -15991.69, -20927.15, 6845.56, -3191.65, 7411.82, 1889.08, 0.072, 0.772, 0.610,0.0,0.0,0.0,0.0,0.0,0.0,0.0,0.0,0.0,0.0, 1557936054206, 12:00:54.206
221, 63170.27, 50139.99, -16085.77, -21075.82, 6803.78, -3212.95, 7390.94, 1858.77, 0.072, 0.772, 0.610,0.0,0.0,0.0,0.0,0.0,0.0,0.0,0.0,0.0,0.0, 1557936054214, 12:00:54.214
222, 62637.05, 49443.20, -15768.51, -20816.42, 7158.57, -2789.74, 7768.15, 2255.69, 0.072, 0.772, 0.610,0.0,0.0,0.0,0.0,0.0,0.0,0.0,0.0,0.0,0.0, 1557936054214, 12:00:54.214
223, 63046.18, 49913.50, -15689.96, -20650.91, 7182.44, -2821.21, 7761.93, 2244.94, 0.072, 0.772, 0.610,0.0,0.0,0.0,0.0,0.0,0.0,0.0,0.0,0.0,0.0, 1557936054222, 12:00:54.222
224, 63541.74, 50536.00, -15958.38, -20897.23, 6875.20, -3177.73, 7430.52, 1897.13, 0.072, 0.772, 0.610,0.0,0.0,0.0,0.0,0.0,0.0,0.0,0.0,0.0,0.0, 1557936054222, 12:00:54.222
225, 63300.12, 50275.84, -16089.77, -21068.51, 6773.61, -3255.51, 7323.86, 1802.31, 0.072, 0.772, 0.610,0.0,0.0,0.0,0.0,0.0,0.0,0.0,0.0,0.0,0.0, 1557936054230, 12:00:54.230
226, 62671.45, 49477.60, -15853.02, -20903.26, 7067.69, -2886.53, 7654.78, 2147.40, 0.072, 0.772, 0.610,0.0,0.0,0.0,0.0,0.0,0.0,0.0,0.0,0.0,0.0, 1557936054231, 12:00:54.231
227, 62925.66, 49747.45, -15671.41, -20655.67, 7227.08, -2782.93, 7816.14, 2283.10, 0.072, 0.772, 0.610,0.0,0.0,0.0,0.0,0.0,0.0,0.0,0.0,0.0,0.0, 1557936054240, 12:00:54.240
228, 63545.38, 50519.63, -15892.56, -20831.47, 6947.70, -3114.51, 7514.41, 1967.04, 0.078, 0.776, 0.600,0.0,0.0,0.0,0.0,0.0,0.0,0.0,0.0,0.0,0.0, 1557936054240, 12:00:54.240
229, 63429.84, 50408.97, -16063.66, -21036.14, 6793.75, -3252.02, 7367.76, 1822.65, 0.078, 0.776, 0.600,0.0,0.0,0.0,0.0,0.0,0.0,0.0,0.0,0.0,0.0, 1557936054244, 12:00:54.244
230, 62797.43, 49618.37, -15875.73, -20928.18, 7041.67, -2923.27, 7653.35, 2129.07, 0.078, 0.776, 0.600,0.0,0.0,0.0,0.0,0.0,0.0,0.0,0.0,0.0,0.0, 1557936054244, 12:00:54.244
231, 62848.14, 49630.19, -15648.23, -20654.42, 7241.34, -2733.31, 7836.30, 2324.04, 0.078, 0.776, 0.600,0.0,0.0,0.0,0.0,0.0,0.0,0.0,0.0,0.0,0.0, 1557936054250, 12:00:54.250
232, 63508.86, 50444.87, -15854.23, -20798.45, 6967.66, -3075.02, 7532.29, 2004.68, 0.078, 0.776, 0.600,0.0,0.0,0.0,0.0,0.0,0.0,0.0,0.0,0.0,0.0, 1557936054259, 12:00:54.259
233, 63501.75, 50473.88, -16067.71, -21037.64, 6768.51, -3270.55, 7335.31, 1806.42, 0.078, 0.776, 0.600,0.0,0.0,0.0,0.0,0.0,0.0,0.0,0.0,0.0,0.0, 1557936054259, 12:00:54.259
234, 62897.32, 49733.25, -15961.33, -21009.83, 6937.11, -3028.44, 7534.24, 2018.23, 0.078, 0.776, 0.600,0.0,0.0,0.0,0.0,0.0,0.0,0.0,0.0,0.0,0.0, 1557936054266, 12:00:54.266
235, 62785.11, 49535.40, -15649.93, -20681.44, 7242.61, -2723.98, 7845.64, 2326.62, 0.078, 0.776, 0.600,0.0,0.0,0.0,0.0,0.0,0.0,0.0,0.0,0.0,0.0, 1557936054266, 12:00:54.266
236, 63427.21, 50331.41, -15814.10, -20769.78, 7007.00, -3031.21, 7586.47, 2053.21, 0.078, 0.776, 0.600,0.0,0.0,0.0,0.0,0.0,0.0,0.0,0.0,0.0,0.0, 1557936054273, 12:00:54.273
237, 63569.14, 50531.23, -16040.53, -21015.80, 6780.54, -3270.53, 7351.71, 1813.02, 0.078, 0.776, 0.600,0.0,0.0,0.0,0.0,0.0,0.0,0.0,0.0,0.0,0.0, 1557936054273, 12:00:54.273
238, 63046.47, 49908.80, -15993.14, -21039.16, 6881.45, -3110.94, 7478.29, 1947.04, 0.074, 0.776, 0.600,0.0,0.0,0.0,0.0,0.0,0.0,0.0,0.0,0.0,0.0, 1557936054281, 12:00:54.281
239, 62763.99, 49495.66, -15649.93, -20705.54, 7237.63, -2713.81, 7844.46, 2333.10, 0.074, 0.776, 0.600,0.0,0.0,0.0,0.0,0.0,0.0,0.0,0.0,0.0,0.0, 1557936054281, 12:00:54.281
240, 63395.34, 50263.55, -15701.12, -20667.76, 7121.91, -2900.61, 7693.98, 2175.90, 0.074, 0.776, 0.600,0.0,0.0,0.0,0.0,0.0,0.0,0.0,0.0,0.0,0.0, 1557936054289, 12:00:54.289
241, 63657.90, 50629.96, -15967.55, -20939.78, 6838.52, -3206.89, 7403.77, 1874.13, 0.074, 0.776, 0.600,0.0,0.0,0.0,0.0,0.0,0.0,0.0,0.0,0.0,0.0, 1557936054289, 12:00:54.289
242, 63175.75, 50073.36, -16044.13, -21075.66, 6810.33, -3189.28, 7399.86, 1873.93, 0.074, 0.776, 0.600,0.0,0.0,0.0,0.0,0.0,0.0,0.0,0.0,0.0,0.0, 1557936054296, 12:00:54.296
243, 62708.11, 49447.80, -15733.77, -20805.65, 7146.81, -2800.76, 7753.80, 2246.10, 0.074, 0.776, 0.600,0.0,0.0,0.0,0.0,0.0,0.0,0.0,0.0,0.0,0.0, 1557936054296, 12:00:54.296
244, 63233.62, 50067.17, -15710.57, -20698.32, 7109.98, -2911.00, 7681.47, 2163.49, 0.074, 0.776, 0.600,0.0,0.0,0.0,0.0,0.0,0.0,0.0,0.0,0.0,0.0, 1557936054303, 12:00:54.303
245, 63639.26, 50588.12, -15981.09, -20959.83, 6802.42, -3244.40, 7361.10, 1835.44, 0.074, 0.776, 0.600,0.0,0.0,0.0,0.0,0.0,0.0,0.0,0.0,0.0,0.0, 1557936054304, 12:00:54.304
246, 63298.35, 50202.42, -16075.06, -21107.36, 6754.65, -3273.68, 7332.40, 1797.95, 0.074, 0.776, 0.600,0.0,0.0,0.0,0.0,0.0,0.0,0.0,0.0,0.0,0.0, 1557936054311, 12:00:54.311
247, 62750.42, 49479.23, -15763.21, -20855.94, 7101.08, -2853.24, 7710.88, 2195.48, 0.074, 0.776, 0.600,0.0,0.0,0.0,0.0,0.0,0.0,0.0,0.0,0.0,0.0, 1557936054311, 12:00:54.311
248, 63134.87, 49920.77, -15657.40, -20672.21, 7170.06, -2852.02, 7746.13, 2224.87, 0.074, 0.784, 0.602,0.0,0.0,0.0,0.0,0.0,0.0,0.0,0.0,0.0,0.0, 1557936054318, 12:00:54.318
249, 63644.87, 50574.82, -15932.19, -20916.18, 6844.22, -3204.10, 7408.71, 1883.09, 0.074, 0.784, 0.602,0.0,0.0,0.0,0.0,0.0,0.0,0.0,0.0,0.0,0.0, 1557936054325, 12:00:54.325
250, 63420.68, 50334.90, -16064.06, -21086.86, 6736.79, -3281.86, 7313.24, 1797.95, 0.074, 0.784, 0.602,0.0,0.0,0.0,0.0,0.0,0.0,0.0,0.0,0.0,0.0, 1557936054325, 12:00:54.325
251, 62804.58, 49552.39, -15819.33, -20910.66, 7042.14, -2907.76, 7652.41, 2144.29, 0.074, 0.784, 0.602,0.0,0.0,0.0,0.0,0.0,0.0,0.0,0.0,0.0,0.0, 1557936054333, 12:00:54.333
252, 63019.09, 49775.28, -15631.94, -20663.94, 7194.13, -2796.63, 7778.70, 2270.11, 0.074, 0.784, 0.602,0.0,0.0,0.0,0.0,0.0,0.0,0.0,0.0,0.0,0.0, 1557936054333, 12:00:54.333
253, 63623.46, 50532.78, -15888.20, -20872.17, 6879.78, -3167.82, 7438.17, 1918.14, 0.074, 0.784, 0.602,0.0,0.0,0.0,0.0,0.0,0.0,0.0,0.0,0.0,0.0, 1557936054341, 12:00:54.341
254, 63519.59, 50437.11, -16059.04, -21079.86, 6741.91, -3307.81, 7323.62, 1786.89, 0.074, 0.784, 0.602,0.0,0.0,0.0,0.0,0.0,0.0,0.0,0.0,0.0,0.0, 1557936054341, 12:00:54.341
255, 62884.42, 49646.62, -15891.42, -20991.57, 6964.83, -3011.58, 7584.24, 2056.67, 0.074, 0.784, 0.602,0.0,0.0,0.0,0.0,0.0,0.0,0.0,0.0,0.0,0.0, 1557936054348, 12:00:54.348
0, 62936.57, 49653.97, -15604.56, -20667.47, 7223.50, -2753.51, 7829.26, 2312.24, 0.074, 0.784, 0.602,0.0,0.0,0.0,0.0,0.0,0.0,0.0,0.0,0.0,0.0, 1557936054348, 12:00:54.348
1, 63592.99, 50476.18, -15808.81, -20805.47, 6943.90, -3088.14, 7523.71, 1995.81, 0.074, 0.784, 0.602,0.0,0.0,0.0,0.0,0.0,0.0,0.0,0.0,0.0,0.0, 1557936054356, 12:00:54.356
2, 63615.23, 50538.79, -16017.62, -21041.64, 6751.19, -3286.60, 7335.93, 1794.58, 0.056, 0.780, 0.604,0.0,0.0,0.0,0.0,0.0,0.0,0.0,0.0,0.0,0.0, 1557936054357, 12:00:54.357
3, 63007.29, 49807.93, -15934.56, -21037.66, 6893.30, -3086.66, 7504.40, 1971.94, 0.056, 0.780, 0.604,0.0,0.0,0.0,0.0,0.0,0.0,0.0,0.0,0.0,0.0, 1557936054366, 12:00:54.366
4, 62862.20, 49561.95, -15609.52, -20706.14, 7205.11, -2755.84, 7813.07, 2296.11, 0.056, 0.780, 0.604,0.0,0.0,0.0,0.0,0.0,0.0,0.0,0.0,0.0,0.0, 1557936054366, 12:00:54.366
5, 63501.30, 50339.05, -15758.56, -20784.13, 6984.61, -3054.34, 7552.39, 2025.20, 0.056, 0.780, 0.604,0.0,0.0,0.0,0.0,0.0,0.0,0.0,0.0,0.0,0.0, 1557936054372, 12:00:54.372
6, 63628.62, 50538.70, -16029.31, -21076.17, 6712.81, -3340.11, 7280.72, 1746.32, 0.056, 0.780, 0.604,0.0,0.0,0.0,0.0,0.0,0.0,0.0,0.0,0.0,0.0, 1557936054372, 12:00:54.372
7, 63108.96, 49923.02, -16001.52, -21121.79, 6800.85, -3202.51, 7415.50, 1875.45, 0.056, 0.780, 0.604,0.0,0.0,0.0,0.0,0.0,0.0,0.0,0.0,0.0,0.0, 1557936054378, 12:00:54.378
8, 62806.57, 49488.97, -15628.05, -20768.84, 7185.17, -2779.48, 7814.84, 2291.46, 0.056, 0.780, 0.604,0.0,0.0,0.0,0.0,0.0,0.0,0.0,0.0,0.0,0.0, 1557936054386, 12:00:54.386
9, 63395.07, 50212.75, -15688.17, -20739.13, 7059.93, -2975.84, 7660.37, 2124.71, 0.056, 0.780, 0.604,0.0,0.0,0.0,0.0,0.0,0.0,0.0,0.0,0.0,0.0, 1557936054386, 12:00:54.386
10, 63675.71, 50590.69, -15973.38, -21023.83, 6752.15, -3296.17, 7347.20, 1807.00, 0.056, 0.780, 0.604,0.0,0.0,0.0,0.0,0.0,0.0,0.0,0.0,0.0,0.0, 1557936054393, 12:00:54.393
11, 63244.77, 50083.93, -16031.72, -21137.06, 6741.38, -3261.25, 7355.80, 1825.22, 0.056, 0.780, 0.604,0.0,0.0,0.0,0.0,0.0,0.0,0.0,0.0,0.0,0.0, 1557936054394, 12:00:54.394
12, 62773.29, 49447.93, -15706.17, -20852.14, 7095.54, -2848.77, 7725.17, 2216.58, 0.038, 0.776, 0.610,0.0,0.0,0.0,0.0,0.0,0.0,0.0,0.0,0.0,0.0, 1557936054402, 12:00:54.402
13, 63272.82, 50040.70, -15674.00, -20735.53, 7073.41, -2941.18, 7672.15, 2150.60, 0.038, 0.776, 0.610,0.0,0.0,0.0,0.0,0.0,0.0,0.0,0.0,0.0,0.0, 1557936054402, 12:00:54.402
14, 63713.27, 50611.75, -15931.45, -20977.56, 6776.11, -3261.68, 7374.35, 1838.79, 0.038, 0.776, 0.610,0.0,0.0,0.0,0.0,0.0,0.0,0.0,0.0,0.0,0.0, 1557936054408, 12:00:54.408
15, 63362.95, 50226.13, -16061.76, -21151.68, 6699.67, -3321.33, 7308.95, 1771.55, 0.038, 0.776, 0.610,0.0,0.0,0.0,0.0,0.0,0.0,0.0,0.0,0.0,0.0, 1557936054408, 12:00:54.408
16, 62797.83, 49485.09, -15766.96, -20914.46, 7043.46, -2910.67, 7683.48, 2162.15, 0.038, 0.776, 0.610,0.0,0.0,0.0,0.0,0.0,0.0,0.0,0.0,0.0,0.0, 1557936054416, 12:00:54.416
17, 63144.14, 49877.54, -15660.19, -20727.67, 7100.10, -2901.41, 7721.21, 2194.00, 0.038, 0.776, 0.610,0.0,0.0,0.0,0.0,0.0,0.0,0.0,0.0,0.0,0.0, 1557936054416, 12:00:54.416
18, 63672.14, 50553.54, -15940.86, -20973.94, 6775.31, -3273.28, 7371.45, 1835.50, 0.038, 0.776, 0.610,0.0,0.0,0.0,0.0,0.0,0.0,0.0,0.0,0.0,0.0, 1557936054424, 12:00:54.424
19, 63483.22, 50358.66, -16068.33, -21140.30, 6683.48, -3355.53, 7283.85, 1745.18, 0.038, 0.776, 0.610,0.0,0.0,0.0,0.0,0.0,0.0,0.0,0.0,0.0,0.0, 1557936054424, 12:00:54.424
20, 62857.04, 49559.23, -15837.06, -20981.40, 6964.54, -2998.46, 7600.78, 2078.56, 0.038, 0.776, 0.610,0.0,0.0,0.0,0.0,0.0,0.0,0.0,0.0,0.0,0.0, 1557936054431, 12:00:54.431
21, 63031.94, 49719.42, -15636.41, -20724.38, 7136.06, -2864.44, 7749.71, 2228.38, 0.038, 0.776, 0.610,0.0,0.0,0.0,0.0,0.0,0.0,0.0,0.0,0.0,0.0, 1557936054432, 12:00:54.432
22, 63660.40, 50513.78, -15863.79, -20897.45, 6844.60, -3205.66, 7435.69, 1904.91, 0.054, 0.784, 0.606,0.0,0.0,0.0,0.0,0.0,0.0,0.0,0.0,0.0,0.0, 1557936054438, 12:00:54.438
23, 63573.75, 50441.85, -16045.02, -21107.33, 6685.61, -3360.34, 7283.96, 1745.67, 0.054, 0.784, 0.606,0.0,0.0,0.0,0.0,0.0,0.0,0.0,0.0,0.0,0.0, 1557936054446, 12:00:54.446
24, 62929.68, 49647.09, -15907.89, -21048.39, 6874.82, -3096.25, 7502.12, 1979.58, 0.054, 0.784, 0.606,0.0,0.0,0.0,0.0,0.0,0.0,0.0,0.0,0.0,0.0, 1557936054446, 12:00:54.446
25, 62938.40, 49596.38, -15619.78, -20733.16, 7148.02, -2841.11, 7751.00, 2235.20, 0.054, 0.784, 0.606,0.0,0.0,0.0,0.0,0.0,0.0,0.0,0.0,0.0,0.0, 1557936054454, 12:00:54.454
26, 63585.66, 50410.49, -15814.69, -20854.49, 6887.20, -3170.28, 7456.50, 1927.53, 0.054, 0.784, 0.606,0.0,0.0,0.0,0.0,0.0,0.0,0.0,0.0,0.0,0.0, 1557936054454, 12:00:54.454
27, 63616.39, 50486.24, -16051.99, -21113.66, 6653.26, -3400.08, 7228.69, 1693.66, 0.054, 0.784, 0.606,0.0,0.0,0.0,0.0,0.0,0.0,0.0,0.0,0.0,0.0, 1557936054461, 12:00:54.461
28, 63041.59, 49777.36, -15979.53, -21112.72, 6776.00, -3205.13, 7382.58, 1859.78, 0.054, 0.784, 0.606,0.0,0.0,0.0,0.0,0.0,0.0,0.0,0.0,0.0,0.0, 1557936054461, 12:00:54.461
29, 62853.06, 49495.41, -15670.74, -20794.12, 7092.95, -2875.69, 7687.35, 2178.22, 0.054, 0.784, 0.606,0.0,0.0,0.0,0.0,0.0,0.0,0.0,0.0,0.0,0.0, 1557936054468, 12:00:54.468
30, 63486.39, 50287.85, -15773.76, -20811.55, 6935.99, -3113.15, 7501.20, 1972.56, 0.054, 0.784, 0.606,0.0,0.0,0.0,0.0,0.0,0.0,0.0,0.0,0.0,0.0, 1557936054469, 12:00:54.469
31, 63663.31, 50538.54, -16015.78, -21059.88, 6691.06, -3364.65, 7273.75, 1729.04, 0.054, 0.784, 0.606,0.0,0.0,0.0,0.0,0.0,0.0,0.0,0.0,0.0,0.0, 1557936054476, 12:00:54.476
32, 63167.44, 49953.60, -15991.29, -21096.31, 6771.53, -3227.28, 7382.09, 1847.22, 0.062, 0.786, 0.592,0.0,0.0,0.0,0.0,0.0,0.0,0.0,0.0,0.0,0.0, 1557936054477, 12:00:54.477
33, 62804.15, 49452.36, -15658.07, -20785.04, 7121.13, -2839.83, 7739.45, 2222.01, 0.062, 0.786, 0.592,0.0,0.0,0.0,0.0,0.0,0.0,0.0,0.0,0.0,0.0, 1557936054484, 12:00:54.484
34, 63356.38, 50137.84, -15715.98, -20757.30, 6987.62, -3037.13, 7579.01, 2049.41, 0.062, 0.786, 0.592,0.0,0.0,0.0,0.0,0.0,0.0,0.0,0.0,0.0,0.0, 1557936054485, 12:00:54.485
35, 63685.23, 50573.46, -15973.54, -21012.79, 6699.24, -3337.05, 7284.48, 1751.28, 0.062, 0.786, 0.592,0.0,0.0,0.0,0.0,0.0,0.0,0.0,0.0,0.0,0.0, 1557936054491, 12:00:54.491
36, 63284.56, 50102.62, -16027.41, -21118.51, 6695.58, -3301.71, 7302.05, 1772.72, 0.062, 0.786, 0.592,0.0,0.0,0.0,0.0,0.0,0.0,0.0,0.0,0.0,0.0, 1557936054491, 12:00:54.491
37, 62764.77, 49423.82, -15717.68, -20849.37, 7042.77, -2894.48, 7668.41, 2158.60, 0.062, 0.786, 0.592,0.0,0.0,0.0,0.0,0.0,0.0,0.0,0.0,0.0,0.0, 1557936054498, 12:00:54.498
38, 63237.73, 49978.79, -15670.72, -20718.70, 7034.16, -2967.24, 7621.52, 2107.32, 0.062, 0.786, 0.592,0.0,0.0,0.0,0.0,0.0,0.0,0.0,0.0,0.0,0.0, 1557936054506, 12:00:54.506
39, 63692.25, 50571.85, -15934.56, -20962.29, 6733.42, -3298.92, 7321.56, 1791.96, 0.062, 0.786, 0.592,0.0,0.0,0.0,0.0,0.0,0.0,0.0,0.0,0.0,0.0, 1557936054507, 12:00:54.507
40, 63348.02, 50197.52, -16074.68, -21142.67, 6654.36, -3366.87, 7257.14, 1722.20, 0.062, 0.786, 0.592,0.0,0.0,0.0,0.0,0.0,0.0,0.0,0.0,0.0,0.0, 1557936054514, 12:00:54.514
41, 62791.14, 49471.05, -15768.37, -20897.99, 6998.80, -2939.43, 7630.97, 2119.15, 0.062, 0.786, 0.592,0.0,0.0,0.0,0.0,0.0,0.0,0.0,0.0,0.0,0.0, 1557936054514, 12:00:54.514
42, 63111.04, 49838.38, -15622.73, -20677.24, 7094.06, -2891.82, 7700.58, 2186.47, 0.064, 0.796, 0.584,0.0,0.0,0.0,0.0,0.0,0.0,0.0,0.0,0.0,0.0, 1557936054521, 12:00:54.521
43, 63670.93, 50552.04, -15897.50, -20911.58, 6764.82, -3266.51, 7352.58, 1828.62, 0.064, 0.796, 0.584,0.0,0.0,0.0,0.0,0.0,0.0,0.0,0.0,0.0,0.0, 1557936054521, 12:00:54.521
44, 63446.23, 50321.80, -16087.13, -21137.40, 6616.85, -3411.66, 7210.27, 1682.06, 0.064, 0.796, 0.584,0.0,0.0,0.0,0.0,0.0,0.0,0.0,0.0,0.0,0.0, 1557936054529, 12:00:54.529
45, 62807.75, 49515.62, -15874.05, -20998.57, 6885.05, -3067.62, 7502.61, 1993.08, 0.064, 0.796, 0.584,0.0,0.0,0.0,0.0,0.0,0.0,0.0,0.0,0.0,0.0, 1557936054530, 12:00:54.530
46, 62977.67, 49680.86, -15644.05, -20710.95, 7086.46, -2893.46, 7687.41, 2174.47, 0.064, 0.796, 0.584,0.0,0.0,0.0,0.0,0.0,0.0,0.0,0.0,0.0,0.0, 1557936054537, 12:00:54.537
47, 63580.05, 50456.16, -15901.12, -20909.25, 6772.87, -3267.15, 7354.75, 1829.94, 0.064, 0.796, 0.584,0.0,0.0,0.0,0.0,0.0,0.0,0.0,0.0,0.0,0.0, 1557936054537, 12:00:54.537
48, 63530.32, 50430.43, -16074.35, -21110.02, 6617.21, -3404.06, 7218.12, 1694.44, 0.064, 0.796, 0.584,0.0,0.0,0.0,0.0,0.0,0.0,0.0,0.0,0.0,0.0, 1557936054545, 12:00:54.545
49, 62901.27, 49659.05, -15934.85, -21041.73, 6815.90, -3128.48, 7452.50, 1941.27, 0.064, 0.796, 0.584,0.0,0.0,0.0,0.0,0.0,0.0,0.0,0.0,0.0,0.0, 1557936054545, 12:00:54.545
50, 62891.28, 49588.37, -15639.92, -20714.72, 7091.96, -2847.63, 7725.95, 2219.28, 0.064, 0.796, 0.584,0.0,0.0,0.0,0.0,0.0,0.0,0.0,0.0,0.0,0.0, 1557936054551, 12:00:54.551
51, 63569.50, 50429.36, -15817.37, -20822.24, 6863.42, -3166.37, 7445.66, 1924.55, 0.064, 0.796, 0.584,0.0,0.0,0.0,0.0,0.0,0.0,0.0,0.0,0.0,0.0, 1557936054552, 12:00:54.552
52, 63629.65, 50541.29, -16046.74, -21076.89, 6632.23, -3393.60, 7224.40, 1698.15, 0.050, 0.778, 0.588,0.0,0.0,0.0,0.0,0.0,0.0,0.0,0.0,0.0,0.0, 1557936054558, 12:00:54.558
53, 63046.04, 49835.07, -15994.28, -21100.74, 6737.80, -3216.66, 7370.55, 1855.71, 0.050, 0.778, 0.588,0.0,0.0,0.0,0.0,0.0,0.0,0.0,0.0,0.0,0.0, 1557936054559, 12:00:54.559
54, 62816.85, 49504.26, -15683.68, -20791.68, 7056.09, -2893.12, 7696.06, 2186.16, 0.050, 0.778, 0.588,0.0,0.0,0.0,0.0,0.0,0.0,0.0,0.0,0.0,0.0, 1557936054566, 12:00:54.566
55, 63458.63, 50299.05, -15780.13, -20806.10, 6893.59, -3134.07, 7504.73, 1985.28, 0.050, 0.778, 0.588,0.0,0.0,0.0,0.0,0.0,0.0,0.0,0.0,0.0,0.0, 1557936054573, 12:00:54.573
56, 63679.29, 50600.66, -16013.46, -21052.04, 6641.22, -3351.67, 7259.91, 1751.68, 0.050, 0.778, 0.588,0.0,0.0,0.0,0.0,0.0,0.0,0.0,0.0,0.0,0.0, 1557936054573, 12:00:54.573
57, 63188.36, 50015.36, -16018.18, -21124.16, 6693.21, -3273.84, 7343.80, 1835.59, 0.050, 0.778, 0.588,0.0,0.0,0.0,0.0,0.0,0.0,0.0,0.0,0.0,0.0, 1557936054581, 12:00:54.581
58, 62785.24, 49463.47, -15712.85, -20850.47, 7013.73, -2888.85, 7681.31, 2189.04, 0.050, 0.778, 0.588,0.0,0.0,0.0,0.0,0.0,0.0,0.0,0.0,0.0,0.0, 1557936054582, 12:00:54.582
59, 63330.78, 50132.64, -15758.72, -20805.83, 6906.55, -3064.40, 7539.78, 2034.30, 0.050, 0.778, 0.588,0.0,0.0,0.0,0.0,0.0,0.0,0.0,0.0,0.0,0.0, 1557936054589, 12:00:54.589
60, 63694.58, 50610.34, -16013.75, -21045.22, 6646.29, -3370.29, 7261.81, 1741.56, 0.050, 0.778, 0.588,0.0,0.0,0.0,0.0,0.0,0.0,0.0,0.0,0.0,0.0, 1557936054589, 12:00:54.589
61, 63289.59, 50150.47, -16096.92, -21176.51, 6620.27, -3375.40, 7254.10, 1726.87, 0.050, 0.778, 0.588,0.0,0.0,0.0,0.0,0.0,0.0,0.0,0.0,0.0,0.0, 1557936054596, 12:00:54.596
62, 62751.47, 49449.41, -15796.63, -20939.81, 6930.38, -2962.32, 7599.12, 2090.74, 0.030, 0.778, 0.598,0.0,0.0,0.0,0.0,0.0,0.0,0.0,0.0,0.0,0.0, 1557936054596, 12:00:54.596
63, 63197.36, 49980.69, -15723.31, -20783.95, 6939.90, -3009.35, 7587.99, 2077.28, 0.030, 0.778, 0.598,0.0,0.0,0.0,0.0,0.0,0.0,0.0,0.0,0.0,0.0, 1557936054603, 12:00:54.603
64, 63668.07, 50591.05, -16005.79, -21041.17, 6630.11, -3369.68, 7254.33, 1730.38, 0.030, 0.778, 0.598,0.0,0.0,0.0,0.0,0.0,0.0,0.0,0.0,0.0,0.0, 1557936054604, 12:00:54.604
65, 63384.32, 50269.70, -16116.08, -21198.26, 6559.52, -3425.92, 7198.11, 1666.17, 0.030, 0.778, 0.598,0.0,0.0,0.0,0.0,0.0,0.0,0.0,0.0,0.0,0.0, 1557936054612, 12:00:54.612
66, 62781.53, 49494.58, -15855.19, -20999.80, 6866.43, -3039.32, 7538.39, 2026.10, 0.030, 0.778, 0.598,0.0,0.0,0.0,0.0,0.0,0.0,0.0,0.0,0.0,0.0, 1557936054612, 12:00:54.612
67, 63076.98, 49826.71, -15708.16, -20777.33, 6972.65, -2981.77, 7619.66, 2107.70, 0.030, 0.778, 0.598,0.0,0.0,0.0,0.0,0.0,0.0,0.0,0.0,0.0,0.0, 1557936054619, 12:00:54.619
68, 63672.99, 50576.05, -15948.51, -20979.59, 6667.55, -3346.10, 7294.85, 1771.35, 0.030, 0.778, 0.598,0.0,0.0,0.0,0.0,0.0,0.0,0.0,0.0,0.0,0.0, 1557936054619, 12:00:54.619
69, 63477.66, 50368.47, -16138.88, -21213.97, 6509.68, -3466.22, 7148.78, 1620.26, 0.030, 0.778, 0.598,0.0,0.0,0.0,0.0,0.0,0.0,0.0,0.0,0.0,0.0, 1557936054626, 12:00:54.626
70, 62856.88, 49574.13, -15909.75, -21072.93, 6786.97, -3117.67, 7454.69, 1942.10, 0.030, 0.778, 0.598,0.0,0.0,0.0,0.0,0.0,0.0,0.0,0.0,0.0,0.0, 1557936054633, 12:00:54.633
71, 63001.41, 49700.84, -15654.29, -20765.35, 7017.64, -2916.14, 7671.86, 2156.85, 0.030, 0.778, 0.598,0.0,0.0,0.0,0.0,0.0,0.0,0.0,0.0,0.0,0.0, 1557936054633, 12:00:54.633
72, 63633.80, 50505.91, -15897.12, -20939.09, 6728.12, -3279.85, 7345.52, 1814.63, 0.018, 0.780, 0.602,0.0,0.0,0.0,0.0,0.0,0.0,0.0,0.0,0.0,0.0, 1557936054641, 12:00:54.641
73, 63585.32, 50483.65, -16099.00, -21171.71, 6543.99, -3457.68, 7171.47, 1632.66, 0.018, 0.780, 0.602,0.0,0.0,0.0,0.0,0.0,0.0,0.0,0.0,0.0,0.0, 1557936054641, 12:00:54.641
74, 62957.69, 49707.89, -15970.92, -21126.04, 6731.63, -3202.47, 7391.59, 1864.38, 0.018, 0.780, 0.602,0.0,0.0,0.0,0.0,0.0,0.0,0.0,0.0,0.0,0.0, 1557936054649, 12:00:54.649
75, 62896.31, 49581.18, -15684.38, -20807.15, 7003.49, -2924.48, 7660.32, 2144.23, 0.018, 0.780, 0.602,0.0,0.0,0.0,0.0,0.0,0.0,0.0,0.0,0.0,0.0, 1557936054649, 12:00:54.649
76, 63526.70, 50380.96, -15892.85, -20932.10, 6733.42, -3281.79, 7352.11, 1821.38, 0.018, 0.780, 0.602,0.0,0.0,0.0,0.0,0.0,0.0,0.0,0.0,0.0,0.0, 1557936054655, 12:00:54.655
77, 63631.84, 50532.93, -16108.63, -21172.29, 6522.37, -3469.30, 7136.58, 1601.52, 0.018, 0.780, 0.602,0.0,0.0,0.0,0.0,0.0,0.0,0.0,0.0,0.0,0.0, 1557936054656, 12:00:54.656
78, 63058.52, 49828.92, -16056.26, -21197.34, 6629.55, -3304.39, 7281.15, 1751.30, 0.018, 0.780, 0.602,0.0,0.0,0.0,0.0,0.0,0.0,0.0,0.0,0.0,0.0, 1557936054664, 12:00:54.664
79, 62822.73, 49476.79, -15719.51, -20865.04, 6973.88, -2941.67, 7630.08, 2110.36, 0.018, 0.780, 0.602,0.0,0.0,0.0,0.0,0.0,0.0,0.0,0.0,0.0,0.0, 1557936054664, 12:00:54.664
80, 63445.83, 50255.39, -15822.40, -20864.73, 6805.61, -3181.88, 7433.99, 1902.38, 0.018, 0.780, 0.602,0.0,0.0,0.0,0.0,0.0,0.0,0.0,0.0,0.0,0.0, 1557936054672, 12:00:54.672
81, 63676.16, 50568.56, -16077.99, -21134.74, 6530.42, -3472.84, 7160.94, 1621.08, 0.018, 0.780, 0.602,0.0,0.0,0.0,0.0,0.0,0.0,0.0,0.0,0.0,0.0, 1557936054672, 12:00:54.672
82, 63218.35, 50007.29, -16051.99, -21186.86, 6600.54, -3355.96, 7252.49, 1719.63, 0.014, 0.784, 0.596,0.0,0.0,0.0,0.0,0.0,0.0,0.0,0.0,0.0,0.0, 1557936054679, 12:00:54.679
83, 62794.45, 49435.64, -15728.97, -20894.19, 6952.44, -2962.37, 7618.93, 2100.37, 0.014, 0.784, 0.596,0.0,0.0,0.0,0.0,0.0,0.0,0.0,0.0,0.0,0.0, 1557936054679, 12:00:54.679
84, 63344.68, 50109.30, -15742.49, -20811.37, 6892.00, -3103.72, 7523.15, 1991.72, 0.014, 0.784, 0.596,0.0,0.0,0.0,0.0,0.0,0.0,0.0,0.0,0.0,0.0, 1557936054685, 12:00:54.685
85, 63740.78, 50630.21, -15996.38, -21050.27, 6615.27, -3416.75, 7242.41, 1701.62, 0.014, 0.784, 0.596,0.0,0.0,0.0,0.0,0.0,0.0,0.0,0.0,0.0,0.0, 1557936054693, 12:00:54.693
86, 63348.57, 50167.50, -16073.14, -21197.16, 6573.60, -3396.28, 7224.02, 1689.19, 0.014, 0.784, 0.596,0.0,0.0,0.0,0.0,0.0,0.0,0.0,0.0,0.0,0.0, 1557936054693, 12:00:54.693
87, 62785.64, 49426.54, -15794.19, -20982.34, 6885.83, -3018.00, 7558.09, 2044.38, 0.014, 0.784, 0.596,0.0,0.0,0.0,0.0,0.0,0.0,0.0,0.0,0.0,0.0, 1557936054701, 12:00:54.701
88, 63192.69, 49919.47, -15737.91, -20821.90, 6887.51, -3057.45, 7536.34, 2028.96, 0.014, 0.784, 0.596,0.0,0.0,0.0,0.0,0.0,0.0,0.0,0.0,0.0,0.0, 1557936054701, 12:00:54.701
89, 63700.66, 50577.32, -16007.13, -21062.88, 6587.80, -3402.14, 7217.83, 1698.40, 0.014, 0.784, 0.596,0.0,0.0,0.0,0.0,0.0,0.0,0.0,0.0,0.0,0.0, 1557936054708, 12:00:54.708
90, 63432.71, 50271.26, -16126.31, -21237.98, 6521.19, -3463.38, 7164.72, 1635.43, 0.014, 0.784, 0.596,0.0,0.0,0.0,0.0,0.0,0.0,0.0,0.0,0.0,0.0, 1557936054709, 12:00:54.709
91, 62794.09, 49448.94, -15894.39, -21089.47, 6801.43, -3108.55, 7476.73, 1965.34, 0.014, 0.784, 0.596,0.0,0.0,0.0,0.0,0.0,0.0,0.0,0.0,0.0,0.0, 1557936054716, 12:00:54.716
92, 63051.50, 49738.78, -15744.25, -20877.00, 6905.41, -3036.64, 7567.54, 2053.07, 0.004, 0.792, 0.596,0.0,0.0,0.0,0.0,0.0,0.0,0.0,0.0,0.0,0.0, 1557936054716, 12:00:54.716
93, 63661.59, 50519.55, -15986.66, -21051.21, 6614.19, -3384.66, 7248.31, 1721.11, 0.004, 0.792, 0.596,0.0,0.0,0.0,0.0,0.0,0.0,0.0,0.0,0.0,0.0, 1557936054724, 12:00:54.724
94, 63533.27, 50386.78, -16120.41, -21226.96, 6494.77, -3492.10, 7134.03, 1608.83, 0.004, 0.792, 0.596,0.0,0.0,0.0,0.0,0.0,0.0,0.0,0.0,0.0,0.0, 1557936054724, 12:00:54.724
95, 62900.85, 49579.88, -15919.29, -21120.74, 6750.74, -3180.70, 7411.70, 1902.87, 0.004, 0.792, 0.596,0.0,0.0,0.0,0.0,0.0,0.0,0.0,0.0,0.0,0.0, 1557936054731, 12:00:54.731
96, 62998.19, 49651.63, -15671.86, -20825.21, 6985.88, -2945.56, 7635.98, 2128.89, 0.004, 0.792, 0.596,0.0,0.0,0.0,0.0,0.0,0.0,0.0,0.0,0.0,0.0, 1557936054732, 12:00:54.732
97, 63623.39, 50464.56, -15928.46, -20981.29, 6678.81, -3312.77, 7311.95, 1790.71, 0.004, 0.792, 0.596,0.0,0.0,0.0,0.0,0.0,0.0,0.0,0.0,0.0,0.0, 1557936054739, 12:00:54.739
98, 63616.21, 50483.96, -16120.30, -21203.94, 6493.49, -3495.28, 7142.28, 1614.20, 0.004, 0.792, 0.596,0.0,0.0,0.0,0.0,0.0,0.0,0.0,0.0,0.0,0.0, 1557936054739, 12:00:54.739
99, 62993.45, 49698.52, -15997.14, -21173.96, 6682.66, -3247.91, 7354.82, 1830.74, 0.004, 0.792, 0.596,0.0,0.0,0.0,0.0,0.0,0.0,0.0,0.0,0.0,0.0, 1557936054746, 12:00:54.746
100, 62868.08, 49504.80, -15728.01, -20875.34, 6946.01, -2980.81, 7606.03, 2095.57, 0.004, 0.792, 0.596,0.0,0.0,0.0,0.0,0.0,0.0,0.0,0.0,0.0,0.0, 1557936054754, 12:00:54.754
101, 63505.89, 50322.11, -15910.71, -20956.46, 6696.45, -3287.36, 7329.81, 1813.42, 0.004, 0.792, 0.596,0.0,0.0,0.0,0.0,0.0,0.0,0.0,0.0,0.0,0.0, 1557936054754, 12:00:54.754
102, 63639.13, 50510.76, -16141.58, -21201.79, 6471.23, -3520.53, 7108.15, 1579.91, -0.002, 0.786, 0.596,0.0,0.0,0.0,0.0,0.0,0.0,0.0,0.0,0.0,0.0, 1557936054761, 12:00:54.761
103, 63082.14, 49820.54, -16088.65, -21245.40, 6567.66, -3370.11, 7234.28, 1708.39, -0.002, 0.786, 0.596,0.0,0.0,0.0,0.0,0.0,0.0,0.0,0.0,0.0,0.0, 1557936054761, 12:00:54.761
104, 62781.80, 49396.95, -15785.41, -20945.42, 6889.32, -3031.70, 7566.40, 2051.42, -0.002, 0.786, 0.596,0.0,0.0,0.0,0.0,0.0,0.0,0.0,0.0,0.0,0.0, 1557936054769, 12:00:54.769
105, 63393.21, 50169.47, -15884.49, -20933.53, 6733.04, -3249.32, 7376.70, 1856.67, -0.002, 0.786, 0.596,0.0,0.0,0.0,0.0,0.0,0.0,0.0,0.0,0.0,0.0, 1557936054769, 12:00:54.769
106, 63709.31, 50575.20, -16093.70, -21143.50, 6515.35, -3452.32, 7150.75, 1627.21, -0.002, 0.786, 0.596,0.0,0.0,0.0,0.0,0.0,0.0,0.0,0.0,0.0,0.0, 1557936054776, 12:00:54.776
107, 63258.70, 50018.08, -16105.28, -21234.34, 6558.11, -3391.59, 7209.13, 1678.50, -0.002, 0.786, 0.596,0.0,0.0,0.0,0.0,0.0,0.0,0.0,0.0,0.0,0.0, 1557936054776, 12:00:54.776
108, 62810.99, 49415.53, -15784.78, -20956.53, 6901.93, -3000.19, 7574.78, 2055.49, -0.002, 0.786, 0.596,0.0,0.0,0.0,0.0,0.0,0.0,0.0,0.0,0.0,0.0, 1557936054784, 12:00:54.784
109, 63293.75, 50034.76, -15816.45, -20867.97, 6816.23, -3135.41, 7470.20, 1950.37, -0.002, 0.786, 0.596,0.0,0.0,0.0,0.0,0.0,0.0,0.0,0.0,0.0,0.0, 1557936054784, 12:00:54.784
110, 63729.79, 50601.35, -16048.95, -21077.96, 6547.43, -3424.40, 7194.42, 1666.43, -0.002, 0.786, 0.596,0.0,0.0,0.0,0.0,0.0,0.0,0.0,0.0,0.0,0.0, 1557936054791, 12:00:54.791
111, 63377.43, 50175.39, -16114.69, -21222.06, 6521.14, -3434.28, 7174.46, 1642.83, -0.002, 0.786, 0.596,0.0,0.0,0.0,0.0,0.0,0.0,0.0,0.0,0.0,0.0, 1557936054791, 12:00:54.791
112, 62820.89, 49434.57, -15817.59, -20991.35, 6856.69, -3034.32, 7526.93, 2015.48, -0.002, 0.782, 0.596,0.0,0.0,0.0,0.0,0.0,0.0,0.0,0.0,0.0,0.0, 1557936054800, 12:00:54.800
113, 63203.63, 49896.38, -15749.53, -20824.54, 6892.14, -3063.40, 7534.35, 2015.34, -0.002, 0.782, 0.596,0.0,0.0,0.0,0.0,0.0,0.0,0.0,0.0,0.0,0.0, 1557936054801, 12:00:54.801
114, 63738.55, 50591.76, -16020.54, -21045.89, 6584.98, -3399.30, 7217.22, 1693.57, -0.002, 0.782, 0.596,0.0,0.0,0.0,0.0,0.0,0.0,0.0,0.0,0.0,0.0, 1557936054807, 12:00:54.807
115, 63493.64, 50303.80, -16150.50, -21225.95, 6493.70, -3473.55, 7138.54, 1612.83, -0.002, 0.782, 0.596,0.0,0.0,0.0,0.0,0.0,0.0,0.0,0.0,0.0,0.0, 1557936054807, 12:00:54.807
116, 62860.28, 49482.54, -15874.41, -21065.20, 6786.06, -3111.05, 7454.95, 1946.70, -0.002, 0.782, 0.596,0.0,0.0,0.0,0.0,0.0,0.0,0.0,0.0,0.0,0.0, 1557936054815, 12:00:54.815
117, 63067.16, 49723.06, -15726.02, -20831.91, 6908.70, -3027.57, 7552.32, 2046.99, -0.002, 0.782, 0.596,0.0,0.0,0.0,0.0,0.0,0.0,0.0,0.0,0.0,0.0, 1557936054821, 12:00:54.821
118, 63672.59, 50514.74, -15991.04, -21021.50, 6584.11, -3397.73, 7211.32, 1697.37, -0.002, 0.782, 0.596,0.0,0.0,0.0,0.0,0.0,0.0,0.0,0.0,0.0,0.0, 1557936054821, 12:00:54.821
119, 63588.09, 50422.25, -16111.85, -21198.35, 6492.38, -3507.23, 7114.14, 1591.94, -0.002, 0.782, 0.596,0.0,0.0,0.0,0.0,0.0,0.0,0.0,0.0,0.0,0.0, 1557936054829, 12:00:54.829
120, 62945.66, 49598.12, -15922.73, -21109.14, 6736.70, -3162.59, 7394.81, 1885.46, -0.002, 0.782, 0.596,0.0,0.0,0.0,0.0,0.0,0.0,0.0,0.0,0.0,0.0, 1557936054829, 12:00:54.829
121, 62978.95, 49601.45, -15692.24, -20819.17, 6952.58, -2970.46, 7610.50, 2100.57, -0.002, 0.782, 0.596,0.0,0.0,0.0,0.0,0.0,0.0,0.0,0.0,0.0,0.0, 1557936054837, 12:00:54.837
122, 63645.38, 50453.59, -15901.68, -20931.85, 6687.17, -3295.70, 7320.49, 1801.42, -0.002, 0.792, 0.600,0.0,0.0,0.0,0.0,0.0,0.0,0.0,0.0,0.0,0.0, 1557936054837, 12:00:54.837
123, 63685.39, 50515.81, -16082.26, -21152.77, 6518.22, -3473.26, 7148.22, 1616.08, -0.002, 0.792, 0.600,0.0,0.0,0.0,0.0,0.0,0.0,0.0,0.0,0.0,0.0, 1557936054844, 12:00:54.844
124, 63080.18, 49748.48, -15965.76, -21138.87, 6678.66, -3251.44, 7341.94, 1812.86, -0.002, 0.792, 0.600,0.0,0.0,0.0,0.0,0.0,0.0,0.0,0.0,0.0,0.0, 1557936054844, 12:00:54.844
125, 62914.30, 49500.02, -15685.00, -20833.21, 6953.69, -2958.05, 7618.77, 2109.40, -0.002, 0.792, 0.600,0.0,0.0,0.0,0.0,0.0,0.0,0.0,0.0,0.0,0.0, 1557936054851, 12:00:54.851
126, 63549.16, 50311.68, -15854.70, -20900.87, 6721.30, -3256.22, 7351.96, 1837.60, -0.002, 0.792, 0.600,0.0,0.0,0.0,0.0,0.0,0.0,0.0,0.0,0.0,0.0, 1557936054851, 12:00:54.851
127, 63714.11, 50539.59, -16074.10, -21150.34, 6500.00, -3490.40, 7134.56, 1605.55, -0.002, 0.792, 0.600,0.0,0.0,0.0,0.0,0.0,0.0,0.0,0.0,0.0,0.0, 1557936054859, 12:00:54.859
128, 63173.49, 49863.75, -16033.78, -21205.55, 6598.01, -3350.68, 7260.99, 1726.81, -0.002, 0.792, 0.600,0.0,0.0,0.0,0.0,0.0,0.0,0.0,0.0,0.0,0.0, 1557936054859, 12:00:54.859
129, 62858.82, 49418.88, -15705.09, -20876.42, 6940.51, -2960.09, 7624.60, 2104.22, -0.002, 0.792, 0.600,0.0,0.0,0.0,0.0,0.0,0.0,0.0,0.0,0.0,0.0, 1557936054868, 12:00:54.868
130, 63471.93, 50191.46, -15767.72, -20814.08, 6826.92, -3129.62, 7486.60, 1963.00, -0.002, 0.792, 0.600,0.0,0.0,0.0,0.0,0.0,0.0,0.0,0.0,0.0,0.0, 1557936054868, 12:00:54.868
131, 63794.71, 50613.60, -16014.58, -21071.59, 6562.27, -3414.88, 7218.76, 1683.18, -0.002, 0.792, 0.600,0.0,0.0,0.0,0.0,0.0,0.0,0.0,0.0,0.0,0.0, 1557936054874, 12:00:54.874
132, 63373.47, 50085.25, -16029.04, -21174.28, 6601.50, -3349.97, 7262.93, 1725.31, -0.002, 0.792, 0.600,0.0,0.0,0.0,0.0,0.0,0.0,0.0,0.0,0.0,0.0, 1557936054881, 12:00:54.881
133, 62878.54, 49420.31, -15736.68, -20923.47, 6925.60, -2974.99, 7604.53, 2078.69, -0.002, 0.792, 0.600,0.0,0.0,0.0,0.0,0.0,0.0,0.0,0.0,0.0,0.0, 1557936054881, 12:00:54.881
134, 63352.20, 50013.95, -15751.90, -20819.08, 6858.77, -3094.51, 7515.13, 1986.73, -0.002, 0.792, 0.600,0.0,0.0,0.0,0.0,0.0,0.0,0.0,0.0,0.0,0.0, 1557936054889, 12:00:54.889
135, 63800.35, 50597.17, -16005.52, -21057.58, 6578.88, -3414.07, 7223.39, 1677.54, -0.002, 0.792, 0.600,0.0,0.0,0.0,0.0,0.0,0.0,0.0,0.0,0.0,0.0, 1557936054889, 12:00:54.889
136, 63480.76, 50206.35, -16074.99, -21204.00, 6543.50, -3428.11, 7204.68, 1646.85, -0.002, 0.792, 0.600,0.0,0.0,0.0,0.0,0.0,0.0,0.0,0.0,0.0,0.0, 1557936054896, 12:00:54.896
137, 62894.63, 49430.19, -15787.10, -20987.42, 6865.96, -3028.24, 7558.00, 2021.29, -0.002, 0.792, 0.600,0.0,0.0,0.0,0.0,0.0,0.0,0.0,0.0,0.0,0.0, 1557936054897, 12:00:54.897
138, 63221.75, 49832.56, -15715.44, -20812.24, 6901.53, -3047.97, 7558.98, 2026.32, -0.002, 0.792, 0.600,0.0,0.0,0.0,0.0,0.0,0.0,0.0,0.0,0.0,0.0, 1557936054903, 12:00:54.903
139, 63806.14, 50589.15, -15942.52, -20997.99, 6621.06, -3371.54, 7265.17, 1721.93, -0.002, 0.792, 0.600,0.0,0.0,0.0,0.0,0.0,0.0,0.0,0.0,0.0,0.0, 1557936054903, 12:00:54.903
140, 63614.65, 50359.28, -16040.44, -21168.71, 6550.20, -3444.65, 7201.71, 1653.34, -0.002, 0.792, 0.600,0.0,0.0,0.0,0.0,0.0,0.0,0.0,0.0,0.0,0.0, 1557936054911, 12:00:54.911
141, 62962.98, 49510.90, -15818.15, -21044.19, 6820.14, -3112.79, 7498.05, 1955.58, -0.002, 0.792, 0.600,0.0,0.0,0.0,0.0,0.0,0.0,0.0,0.0,0.0,0.0, 1557936054911, 12:00:54.911
142, 63127.40, 49698.07, -15648.66, -20783.37, 6959.39, -2982.44, 7631.53, 2104.89, 0.002, 0.780, 0.604,0.0,0.0,0.0,0.0,0.0,0.0,0.0,0.0,0.0,0.0, 1557936054920, 12:00:54.920
143, 63755.18, 50526.09, -15904.81, -20952.77, 6646.16, -3320.78, 7306.79, 1796.74, 0.002, 0.780, 0.604,0.0,0.0,0.0,0.0,0.0,0.0,0.0,0.0,0.0,0.0, 1557936054921, 12:00:54.921
144, 63679.87, 50449.07, -16067.93, -21174.75, 6497.90, -3467.56, 7163.76, 1648.69, 0.002, 0.780, 0.604,0.0,0.0,0.0,0.0,0.0,0.0,0.0,0.0,0.0,0.0, 1557936054926, 12:00:54.926
145, 63016.23, 49593.00, -15923.76, -21141.49, 6699.94, -3209.98, 7393.82, 1883.13, 0.002, 0.780, 0.604,0.0,0.0,0.0,0.0,0.0,0.0,0.0,0.0,0.0,0.0, 1557936054926, 12:00:54.926
146, 62973.38, 49508.80, -15697.52, -20860.37, 6920.30, -2996.59, 7608.13, 2101.09, 0.002, 0.780, 0.604,0.0,0.0,0.0,0.0,0.0,0.0,0.0,0.0,0.0,0.0, 1557936054933, 12:00:54.933
147, 63670.98, 50404.88, -15854.38, -20917.75, 6700.54, -3276.14, 7362.06, 1844.71, 0.002, 0.780, 0.604,0.0,0.0,0.0,0.0,0.0,0.0,0.0,0.0,0.0,0.0, 1557936054941, 12:00:54.941
148, 63745.65, 50514.18, -16049.63, -21149.31, 6514.10, -3475.38, 7176.47, 1648.42, 0.002, 0.780, 0.604,0.0,0.0,0.0,0.0,0.0,0.0,0.0,0.0,0.0,0.0, 1557936054941, 12:00:54.941
149, 63149.44, 49748.41, -15970.88, -21175.42, 6648.62, -3285.84, 7333.58, 1812.48, 0.002, 0.780, 0.604,0.0,0.0,0.0,0.0,0.0,0.0,0.0,0.0,0.0,0.0, 1557936054949, 12:00:54.949
150, 62930.42, 49429.50, -15686.92, -20870.87, 6949.38, -2979.13, 7639.22, 2121.31, 0.002, 0.780, 0.604,0.0,0.0,0.0,0.0,0.0,0.0,0.0,0.0,0.0,0.0, 1557936054949, 12:00:54.949
151, 63570.15, 50261.54, -15837.06, -20894.57, 6744.08, -3242.25, 7408.84, 1888.68, 0.002, 0.780, 0.604,0.0,0.0,0.0,0.0,0.0,0.0,0.0,0.0,0.0,0.0, 1557936054956, 12:00:54.956
152, 63803.19, 50571.09, -16047.41, -21119.65, 6527.96, -3460.34, 7185.12, 1669.03, 0.006, 0.764, 0.596,0.0,0.0,0.0,0.0,0.0,0.0,0.0,0.0,0.0,0.0, 1557936054956, 12:00:54.956
153, 63287.60, 49916.50, -16052.93, -21221.21, 6571.81, -3373.93, 7244.27, 1720.61, 0.006, 0.764, 0.596,0.0,0.0,0.0,0.0,0.0,0.0,0.0,0.0,0.0,0.0, 1557936054964, 12:00:54.964
154, 62898.54, 49381.13, -15751.21, -20929.97, 6897.61, -3003.02, 7578.22, 2066.89, 0.006, 0.764, 0.596,0.0,0.0,0.0,0.0,0.0,0.0,0.0,0.0,0.0,0.0, 1557936054964, 12:00:54.964
155, 63482.62, 50126.13, -15799.64, -20845.39, 6787.87, -3175.53, 7432.60, 1928.35, 0.006, 0.764, 0.596,0.0,0.0,0.0,0.0,0.0,0.0,0.0,0.0,0.0,0.0, 1557936054972, 12:00:54.972
156, 63855.76, 50617.80, -16025.40, -21061.85, 6546.00, -3443.80, 7182.64, 1672.65, 0.006, 0.764, 0.596,0.0,0.0,0.0,0.0,0.0,0.0,0.0,0.0,0.0,0.0, 1557936054972, 12:00:54.972
157, 63442.68, 50102.98, -16076.69, -21203.89, 6546.62, -3436.07, 7195.00, 1674.53, 0.006, 0.764, 0.596,0.0,0.0,0.0,0.0,0.0,0.0,0.0,0.0,0.0,0.0, 1557936054979, 12:00:54.979
158, 62917.88, 49398.27, -15785.85, -20955.52, 6870.43, -3048.64, 7537.21, 2041.59, 0.006, 0.764, 0.596,0.0,0.0,0.0,0.0,0.0,0.0,0.0,0.0,0.0,0.0, 1557936054980, 12:00:54.980
159, 63388.70, 49989.77, -15750.94, -20788.73, 6853.18, -3107.56, 7489.94, 2012.55, 0.006, 0.764, 0.596,0.0,0.0,0.0,0.0,0.0,0.0,0.0,0.0,0.0,0.0, 1557936054986, 12:00:54.986
160, 63876.50, 50637.34, -16012.05, -21010.91, 6550.92, -3439.71, 7166.17, 1683.27, 0.006, 0.764, 0.596,0.0,0.0,0.0,0.0,0.0,0.0,0.0,0.0,0.0,0.0, 1557936054986, 12:00:54.986
161, 63580.43, 50276.47, -16106.76, -21180.31, 6500.20, -3491.54, 7114.85, 1618.78, 0.006, 0.764, 0.596,0.0,0.0,0.0,0.0,0.0,0.0,0.0,0.0,0.0,0.0, 1557936054993, 12:00:54.993
162, 62949.46, 49446.10, -15859.41, -21010.62, 6797.46, -3133.27, 7437.12, 1956.07, 0.034, 0.788, 0.590,0.0,0.0,0.0,0.0,0.0,0.0,0.0,0.0,0.0,0.0, 1557936055002, 12:00:55.002
163, 63240.70, 49811.73, -15749.35, -20777.26, 6873.38, -3086.19, 7495.12, 2026.50, 0.034, 0.788, 0.590,0.0,0.0,0.0,0.0,0.0,0.0,0.0,0.0,0.0,0.0, 1557936055002, 12:00:55.002
164, 63833.52, 50585.10, -15998.26, -20955.32, 6580.98, -3415.03, 7180.14, 1708.75, 0.034, 0.788, 0.590,0.0,0.0,0.0,0.0,0.0,0.0,0.0,0.0,0.0,0.0, 1557936055008, 12:00:55.008
165, 63681.95, 50402.38, -16119.97, -21141.78, 6488.93, -3509.47, 7088.94, 1602.75, 0.034, 0.788, 0.590,0.0,0.0,0.0,0.0,0.0,0.0,0.0,0.0,0.0,0.0, 1557936055009, 12:00:55.009
166, 63055.18, 49570.33, -15900.25, -21022.26, 6761.18, -3181.57, 7386.85, 1898.00, 0.034, 0.788, 0.590,0.0,0.0,0.0,0.0,0.0,0.0,0.0,0.0,0.0,0.0, 1557936055016, 12:00:55.016
167, 63183.95, 49706.68, -15706.66, -20739.85, 6927.50, -3042.65, 7533.16, 2042.82, 0.034, 0.788, 0.590,0.0,0.0,0.0,0.0,0.0,0.0,0.0,0.0,0.0,0.0, 1557936055016, 12:00:55.016
168, 63795.36, 50519.68, -15972.42, -20904.78, 6609.28, -3406.12, 7191.07, 1704.05, 0.034, 0.788, 0.590,0.0,0.0,0.0,0.0,0.0,0.0,0.0,0.0,0.0,0.0, 1557936055024, 12:00:55.024
169, 63760.88, 50486.93, -16131.61, -21115.40, 6484.49, -3545.37, 7066.53, 1560.44, 0.034, 0.788, 0.590,0.0,0.0,0.0,0.0,0.0,0.0,0.0,0.0,0.0,0.0, 1557936055025, 12:00:55.025
170, 63144.59, 49674.38, -15980.47, -21071.64, 6689.25, -3272.09, 7300.48, 1799.52, 0.034, 0.788, 0.590,0.0,0.0,0.0,0.0,0.0,0.0,0.0,0.0,0.0,0.0, 1557936055032, 12:00:55.032
171, 63066.03, 49542.73, -15730.58, -20762.78, 6930.85, -3027.57, 7538.01, 2044.16, 0.034, 0.788, 0.590,0.0,0.0,0.0,0.0,0.0,0.0,0.0,0.0,0.0,0.0, 1557936055032, 12:00:55.032
172, 63728.60, 50407.50, -15903.06, -20817.79, 6697.86, -3316.51, 7274.89, 1774.59, 0.062, 0.798, 0.576,0.0,0.0,0.0,0.0,0.0,0.0,0.0,0.0,0.0,0.0, 1557936055038, 12:00:55.038
173, 63869.84, 50590.89, -16071.15, -21031.92, 6528.34, -3503.12, 7095.52, 1588.34, 0.062, 0.798, 0.576,0.0,0.0,0.0,0.0,0.0,0.0,0.0,0.0,0.0,0.0, 1557936055039, 12:00:55.039
174, 63301.68, 49854.22, -15997.48, -21082.75, 6650.47, -3332.69, 7242.55, 1740.84, 0.062, 0.798, 0.576,0.0,0.0,0.0,0.0,0.0,0.0,0.0,0.0,0.0,0.0, 1557936055047, 12:00:55.047
175, 63034.78, 49482.43, -15706.95, -20786.34, 6936.77, -3015.36, 7534.91, 2058.24, 0.062, 0.798, 0.576,0.0,0.0,0.0,0.0,0.0,0.0,0.0,0.0,0.0,0.0, 1557936055047, 12:00:55.047
176, 63620.17, 50261.67, -15843.97, -20808.87, 6726.15, -3285.44, 7286.76, 1816.64, 0.062, 0.798, 0.576,0.0,0.0,0.0,0.0,0.0,0.0,0.0,0.0,0.0,0.0, 1557936055054, 12:00:55.054
177, 63859.33, 50589.39, -16068.40, -21058.96, 6488.24, -3543.35, 7045.36, 1561.92, 0.062, 0.798, 0.576,0.0,0.0,0.0,0.0,0.0,0.0,0.0,0.0,0.0,0.0, 1557936055055, 12:00:55.055
178, 63394.51, 49984.54, -16062.12, -21165.85, 6550.13, -3459.33, 7130.18, 1633.42, 0.062, 0.798, 0.576,0.0,0.0,0.0,0.0,0.0,0.0,0.0,0.0,0.0,0.0, 1557936055061, 12:00:55.061
179, 62988.46, 49421.14, -15736.16, -20864.97, 6905.82, -3056.91, 7505.13, 2023.03, 0.062, 0.798, 0.576,0.0,0.0,0.0,0.0,0.0,0.0,0.0,0.0,0.0,0.0, 1557936055068, 12:00:55.068
180, 63553.03, 50148.71, -15739.34, -20731.96, 6843.01, -3165.72, 7415.55, 1942.08, 0.062, 0.798, 0.576,0.0,0.0,0.0,0.0,0.0,0.0,0.0,0.0,0.0,0.0, 1557936055069, 12:00:55.069
181, 63955.80, 50683.99, -15957.29, -20938.89, 6600.27, -3423.77, 7164.45, 1687.33, 0.062, 0.798, 0.576,0.0,0.0,0.0,0.0,0.0,0.0,0.0,0.0,0.0,0.0, 1557936055076, 12:00:55.076
182, 63579.40, 50207.00, -16027.63, -21104.29, 6579.37, -3431.57, 7154.93, 1666.32, 0.058, 0.810, 0.572,0.0,0.0,0.0,0.0,0.0,0.0,0.0,0.0,0.0,0.0, 1557936055076, 12:00:55.076
183, 63051.99, 49491.97, -15738.67, -20866.49, 6913.13, -3030.43, 7532.65, 2048.11, 0.058, 0.810, 0.572,0.0,0.0,0.0,0.0,0.0,0.0,0.0,0.0,0.0,0.0, 1557936055084, 12:00:55.084
184, 63459.44, 50015.54, -15694.43, -20695.01, 6910.98, -3080.54, 7518.03, 2031.66, 0.058, 0.810, 0.572,0.0,0.0,0.0,0.0,0.0,0.0,0.0,0.0,0.0,0.0, 1557936055084, 12:00:55.084
185, 63919.24, 50634.12, -15982.55, -20950.22, 6586.30, -3448.14, 7170.57, 1674.26, 0.058, 0.810, 0.572,0.0,0.0,0.0,0.0,0.0,0.0,0.0,0.0,0.0,0.0, 1557936055091, 12:00:55.091
186, 63664.16, 50307.61, -16094.08, -21144.86, 6503.75, -3513.07, 7092.45, 1590.68, 0.058, 0.810, 0.572,0.0,0.0,0.0,0.0,0.0,0.0,0.0,0.0,0.0,0.0, 1557936055091, 12:00:55.091
187, 63069.29, 49500.20, -15832.50, -20977.71, 6815.29, -3146.14, 7435.71, 1933.85, 0.058, 0.810, 0.572,0.0,0.0,0.0,0.0,0.0,0.0,0.0,0.0,0.0,0.0, 1557936055099, 12:00:55.099
188, 63295.20, 49789.52, -15725.21, -20761.55, 6886.30, -3101.22, 7494.18, 2004.39, 0.058, 0.810, 0.572,0.0,0.0,0.0,0.0,0.0,0.0,0.0,0.0,0.0,0.0, 1557936055099, 12:00:55.099
189, 63898.70, 50588.14, -15947.23, -20912.11, 6606.82, -3405.89, 7199.41, 1708.14, 0.058, 0.810, 0.572,0.0,0.0,0.0,0.0,0.0,0.0,0.0,0.0,0.0,0.0, 1557936055107, 12:00:55.107
190, 63817.22, 50470.98, -16047.03, -21085.47, 6534.44, -3487.48, 7127.84, 1620.14, 0.058, 0.810, 0.572,0.0,0.0,0.0,0.0,0.0,0.0,0.0,0.0,0.0,0.0, 1557936055107, 12:00:55.107
191, 63177.49, 49619.93, -15872.22, -21021.03, 6769.31, -3196.39, 7389.46, 1883.76, 0.058, 0.810, 0.572,0.0,0.0,0.0,0.0,0.0,0.0,0.0,0.0,0.0,0.0, 1557936055114, 12:00:55.114
192, 63209.41, 49656.12, -15706.28, -20764.50, 6919.88, -3055.42, 7535.51, 2035.64, 0.046, 0.790, 0.576,0.0,0.0,0.0,0.0,0.0,0.0,0.0,0.0,0.0,0.0, 1557936055114, 12:00:55.114
193, 63871.20, 50518.32, -15902.17, -20861.20, 6653.35, -3358.28, 7247.91, 1746.97, 0.046, 0.790, 0.576,0.0,0.0,0.0,0.0,0.0,0.0,0.0,0.0,0.0,0.0, 1557936055121, 12:00:55.121
194, 63913.61, 50563.76, -16047.30, -21067.86, 6509.97, -3516.06, 7089.37, 1576.49, 0.046, 0.790, 0.576,0.0,0.0,0.0,0.0,0.0,0.0,0.0,0.0,0.0,0.0, 1557936055129, 12:00:55.129
195, 63311.63, 49768.37, -15935.36, -21075.41, 6675.28, -3293.69, 7276.90, 1772.96, 0.046, 0.790, 0.576,0.0,0.0,0.0,0.0,0.0,0.0,0.0,0.0,0.0,0.0, 1557936055129, 12:00:55.129
196, 63176.40, 49577.53, -15687.30, -20773.46, 6926.94, -3021.29, 7555.60, 2067.25, 0.046, 0.790, 0.576,0.0,0.0,0.0,0.0,0.0,0.0,0.0,0.0,0.0,0.0, 1557936055137, 12:00:55.137
197, 63797.98, 50403.94, -15851.43, -20824.27, 6708.94, -3300.88, 7332.42, 1825.76, 0.046, 0.790, 0.576,0.0,0.0,0.0,0.0,0.0,0.0,0.0,0.0,0.0,0.0, 1557936055137, 12:00:55.137
198, 63970.27, 50618.94, -16019.92, -21035.94, 6530.46, -3491.99, 7146.08, 1632.88, 0.046, 0.790, 0.576,0.0,0.0,0.0,0.0,0.0,0.0,0.0,0.0,0.0,0.0, 1557936055144, 12:00:55.144
199, 63451.93, 49929.53, -15967.44, -21112.50, 6626.33, -3363.67, 7263.11, 1746.36, 0.046, 0.790, 0.576,0.0,0.0,0.0,0.0,0.0,0.0,0.0,0.0,0.0,0.0, 1557936055144, 12:00:55.144
200, 63131.18, 49499.68, -15687.59, -20824.47, 6921.91, -3029.49, 7568.30, 2063.56, 0.046, 0.790, 0.576,0.0,0.0,0.0,0.0,0.0,0.0,0.0,0.0,0.0,0.0, 1557936055151, 12:00:55.151
201, 63735.24, 50293.75, -15768.78, -20774.09, 6771.71, -3226.94, 7388.88, 1887.92, 0.046, 0.790, 0.576,0.0,0.0,0.0,0.0,0.0,0.0,0.0,0.0,0.0,0.0, 1557936055151, 12:00:55.151
202, 64017.92, 50668.41, -15980.76, -21006.01, 6535.31, -3479.36, 7147.84, 1644.06, 0.040, 0.798, 0.586,0.0,0.0,0.0,0.0,0.0,0.0,0.0,0.0,0.0,0.0, 1557936055159, 12:00:55.159
203, 63603.70, 50123.25, -15967.50, -21105.61, 6585.00, -3394.25, 7221.71, 1718.94, 0.040, 0.798, 0.586,0.0,0.0,0.0,0.0,0.0,0.0,0.0,0.0,0.0,0.0, 1557936055160, 12:00:55.160
204, 63140.41, 49500.82, -15688.24, -20865.67, 6894.98, -3043.32, 7547.80, 2054.66, 0.040, 0.798, 0.586,0.0,0.0,0.0,0.0,0.0,0.0,0.0,0.0,0.0,0.0, 1557936055167, 12:00:55.167
205, 63629.65, 50142.94, -15706.73, -20753.73, 6827.16, -3170.62, 7455.60, 1959.06, 0.040, 0.798, 0.586,0.0,0.0,0.0,0.0,0.0,0.0,0.0,0.0,0.0,0.0, 1557936055167, 12:00:55.167
206, 64037.14, 50684.28, -15931.03, -20964.28, 6569.11, -3451.98, 7188.70, 1682.21, 0.040, 0.798, 0.586,0.0,0.0,0.0,0.0,0.0,0.0,0.0,0.0,0.0,0.0, 1557936055174, 12:00:55.174
207, 63687.07, 50238.81, -16026.78, -21156.51, 6513.50, -3493.62, 7145.25, 1623.61, 0.040, 0.798, 0.586,0.0,0.0,0.0,0.0,0.0,0.0,0.0,0.0,0.0,0.0, 1557936055174, 12:00:55.174
208, 63139.27, 49502.83, -15750.38, -20949.08, 6829.66, -3113.93, 7480.88, 1968.59, 0.040, 0.798, 0.586,0.0,0.0,0.0,0.0,0.0,0.0,0.0,0.0,0.0,0.0, 1557936055181, 12:00:55.181
209, 63506.63, 49977.47, -15665.91, -20732.94, 6869.07, -3114.25, 7498.59, 1992.50, 0.040, 0.798, 0.586,0.0,0.0,0.0,0.0,0.0,0.0,0.0,0.0,0.0,0.0, 1557936055189, 12:00:55.189
210, 64022.46, 50656.81, -15896.60, -20916.81, 6598.37, -3424.33, 7219.19, 1699.87, 0.040, 0.798, 0.586,0.0,0.0,0.0,0.0,0.0,0.0,0.0,0.0,0.0,0.0, 1557936055189, 12:00:55.189
211, 63844.70, 50414.31, -15982.93, -21086.12, 6541.17, -3478.11, 7164.02, 1631.16, 0.040, 0.798, 0.586,0.0,0.0,0.0,0.0,0.0,0.0,0.0,0.0,0.0,0.0, 1557936055197, 12:00:55.197
212, 63253.60, 49617.16, -15745.10, -20944.50, 6839.28, -3118.76, 7491.88, 1964.00, 0.040, 0.798, 0.586,0.0,0.0,0.0,0.0,0.0,0.0,0.0,0.0,0.0,0.0, 1557936055197, 12:00:55.197
213, 63426.78, 49843.65, -15633.50, -20730.84, 6911.52, -3062.17, 7551.60, 2037.94, 0.024, 0.782, 0.586,0.0,0.0,0.0,0.0,0.0,0.0,0.0,0.0,0.0,0.0, 1557936055203, 12:00:55.203
214, 64017.16, 50624.55, -15862.16, -20894.12, 6616.61, -3397.26, 7231.64, 1717.46, 0.024, 0.782, 0.586,0.0,0.0,0.0,0.0,0.0,0.0,0.0,0.0,0.0,0.0, 1557936055204, 12:00:55.204
215, 63925.88, 50511.99, -16010.24, -21110.75, 6486.43, -3516.29, 7111.12, 1603.74, 0.024, 0.782, 0.586,0.0,0.0,0.0,0.0,0.0,0.0,0.0,0.0,0.0,0.0, 1557936055213, 12:00:55.213
216, 63295.51, 49680.95, -15857.49, -21078.34, 6694.66, -3242.81, 7357.14, 1856.78, 0.024, 0.782, 0.586,0.0,0.0,0.0,0.0,0.0,0.0,0.0,0.0,0.0,0.0, 1557936055213, 12:00:55.213
217, 63316.43, 49697.11, -15639.49, -20782.96, 6896.12, -3048.64, 7547.49, 2055.51, 0.024, 0.782, 0.586,0.0,0.0,0.0,0.0,0.0,0.0,0.0,0.0,0.0,0.0, 1557936055220, 12:00:55.220
218, 63956.45, 50535.91, -15805.05, -20843.54, 6668.44, -3326.30, 7289.22, 1793.55, 0.024, 0.782, 0.586,0.0,0.0,0.0,0.0,0.0,0.0,0.0,0.0,0.0,0.0, 1557936055220, 12:00:55.220
219, 64021.70, 50616.95, -15956.51, -21045.20, 6533.03, -3485.91, 7151.73, 1631.54, 0.024, 0.782, 0.586,0.0,0.0,0.0,0.0,0.0,0.0,0.0,0.0,0.0,0.0, 1557936055226, 12:00:55.226
220, 63454.07, 49865.93, -15866.85, -21077.34, 6669.51, -3295.41, 7313.42, 1798.89, 0.024, 0.782, 0.586,0.0,0.0,0.0,0.0,0.0,0.0,0.0,0.0,0.0,0.0, 1557936055227, 12:00:55.227
221, 63268.82, 49617.23, -15618.82, -20786.96, 6908.10, -3026.14, 7556.70, 2067.18, 0.024, 0.782, 0.586,0.0,0.0,0.0,0.0,0.0,0.0,0.0,0.0,0.0,0.0, 1557936055234, 12:00:55.234
222, 63870.31, 50419.59, -15761.76, -20805.65, 6704.38, -3287.67, 7326.14, 1838.03, 0.024, 0.782, 0.586,0.0,0.0,0.0,0.0,0.0,0.0,0.0,0.0,0.0,0.0, 1557936055234, 12:00:55.234
223, 64046.33, 50657.10, -15951.05, -21027.25, 6512.47, -3502.52, 7129.18, 1619.27, 0.026, 0.796, 0.586,0.0,0.0,0.0,0.0,0.0,0.0,0.0,0.0,0.0,0.0, 1557936055241, 12:00:55.241
224, 63544.62, 50004.49, -15940.24, -21140.57, 6574.03, -3413.60, 7204.55, 1682.44, 0.026, 0.796, 0.586,0.0,0.0,0.0,0.0,0.0,0.0,0.0,0.0,0.0,0.0, 1557936055249, 12:00:55.249
225, 63213.55, 49552.72, -15642.73, -20845.08, 6891.78, -3048.20, 7539.49, 2037.32, 0.026, 0.796, 0.586,0.0,0.0,0.0,0.0,0.0,0.0,0.0,0.0,0.0,0.0, 1557936055249, 12:00:55.249
226, 63793.08, 50306.20, -15687.66, -20747.09, 6786.93, -3196.17, 7410.90, 1920.64, 0.026, 0.796, 0.586,0.0,0.0,0.0,0.0,0.0,0.0,0.0,0.0,0.0,0.0, 1557936055256, 12:00:55.256
227, 64122.41, 50732.20, -15883.84, -20951.88, 6561.00, -3437.83, 7174.40, 1679.15, 0.026, 0.796, 0.586,0.0,0.0,0.0,0.0,0.0,0.0,0.0,0.0,0.0,0.0, 1557936055256, 12:00:55.256
228, 63734.90, 50224.88, -15925.19, -21106.39, 6563.21, -3421.54, 7187.85, 1682.93, 0.026, 0.796, 0.586,0.0,0.0,0.0,0.0,0.0,0.0,0.0,0.0,0.0,0.0, 1557936055264, 12:00:55.264
229, 63243.77, 49574.56, -15643.29, -20872.86, 6877.30, -3056.78, 7524.18, 2030.86, 0.026, 0.796, 0.586,0.0,0.0,0.0,0.0,0.0,0.0,0.0,0.0,0.0,0.0, 1557936055264, 12:00:55.264
230, 63652.91, 50130.07, -15663.83, -20747.80, 6807.47, -3179.71, 7423.66, 1931.17, 0.026, 0.796, 0.586,0.0,0.0,0.0,0.0,0.0,0.0,0.0,0.0,0.0,0.0, 1557936055272, 12:00:55.272
231, 64087.41, 50698.43, -15871.77, -20934.46, 6575.44, -3437.61, 7186.38, 1683.82, 0.026, 0.796, 0.586,0.0,0.0,0.0,0.0,0.0,0.0,0.0,0.0,0.0,0.0, 1557936055272, 12:00:55.272
232, 63831.13, 50357.27, -15932.32, -21085.85, 6544.19, -3448.78, 7170.77, 1670.84, 0.026, 0.796, 0.586,0.0,0.0,0.0,0.0,0.0,0.0,0.0,0.0,0.0,0.0, 1557936055279, 12:00:55.279
233, 63228.25, 49563.94, -15712.00, -20952.66, 6812.72, -3130.90, 7457.03, 1964.79, 0.020, 0.796, 0.574,0.0,0.0,0.0,0.0,0.0,0.0,0.0,0.0,0.0,0.0, 1557936055279, 12:00:55.279
234, 63530.88, 49962.36, -15626.30, -20730.93, 6861.29, -3106.69, 7493.89, 2015.48, 0.020, 0.796, 0.574,0.0,0.0,0.0,0.0,0.0,0.0,0.0,0.0,0.0,0.0, 1557936055286, 12:00:55.286
235, 64085.49, 50685.98, -15827.90, -20873.38, 6614.37, -3378.73, 7234.01, 1754.66, 0.020, 0.796, 0.574,0.0,0.0,0.0,0.0,0.0,0.0,0.0,0.0,0.0,0.0, 1557936055287, 12:00:55.287
236, 63938.23, 50487.54, -15948.57, -21077.56, 6508.83, -3486.34, 7125.04, 1638.63, 0.020, 0.796, 0.574,0.0,0.0,0.0,0.0,0.0,0.0,0.0,0.0,0.0,0.0, 1557936055294, 12:00:55.294
237, 63295.89, 49644.25, -15778.72, -21026.75, 6738.76, -3215.66, 7380.17, 1881.55, 0.020, 0.796, 0.574,0.0,0.0,0.0,0.0,0.0,0.0,0.0,0.0,0.0,0.0, 1557936055295, 12:00:55.295
238, 63445.07, 49835.70, -15595.77, -20735.91, 6896.36, -3071.20, 7526.68, 2041.41, 0.020, 0.796, 0.574,0.0,0.0,0.0,0.0,0.0,0.0,0.0,0.0,0.0,0.0, 1557936055302, 12:00:55.302
239, 64051.47, 50638.46, -15787.73, -20834.53, 6644.41, -3350.33, 7251.93, 1773.48, 0.020, 0.796, 0.574,0.0,0.0,0.0,0.0,0.0,0.0,0.0,0.0,0.0,0.0, 1557936055302, 12:00:55.302
240, 64030.48, 50605.49, -15923.70, -21034.09, 6520.99, -3483.30, 7122.79, 1635.32, 0.020, 0.796, 0.574,0.0,0.0,0.0,0.0,0.0,0.0,0.0,0.0,0.0,0.0, 1557936055309, 12:00:55.309
241, 63441.98, 49819.31, -15783.04, -21025.21, 6712.63, -3248.40, 7332.80, 1841.90, 0.020, 0.796, 0.574,0.0,0.0,0.0,0.0,0.0,0.0,0.0,0.0,0.0,0.0, 1557936055316, 12:00:55.316
242, 63368.42, 49733.48, -15581.69, -20747.16, 6901.30, -3044.11, 7523.64, 2056.45, 0.020, 0.796, 0.574,0.0,0.0,0.0,0.0,0.0,0.0,0.0,0.0,0.0,0.0, 1557936055316, 12:00:55.316
243, 63962.44, 50534.01, -15762.79, -20814.35, 6669.07, -3332.29, 7276.27, 1802.71, 0.026, 0.808, 0.570,0.0,0.0,0.0,0.0,0.0,0.0,0.0,0.0,0.0,0.0, 1557936055324, 12:00:55.324
244, 64075.99, 50672.77, -15907.87, -21016.65, 6520.34, -3506.90, 7117.87, 1636.80, 0.026, 0.808, 0.570,0.0,0.0,0.0,0.0,0.0,0.0,0.0,0.0,0.0,0.0, 1557936055324, 12:00:55.324
245, 63525.73, 49947.54, -15838.62, -21090.14, 6630.35, -3350.24, 7241.18, 1764.49, 0.026, 0.808, 0.570,0.0,0.0,0.0,0.0,0.0,0.0,0.0,0.0,0.0,0.0, 1557936055332, 12:00:55.332
246, 63310.40, 49657.44, -15565.49, -20797.38, 6899.83, -3054.86, 7503.84, 2035.75, 0.026, 0.808, 0.570,0.0,0.0,0.0,0.0,0.0,0.0,0.0,0.0,0.0,0.0, 1557936055332, 12:00:55.332
247, 63890.54, 50439.21, -15701.07, -20795.32, 6710.17, -3276.48, 7298.07, 1864.63, 0.026, 0.808, 0.570,0.0,0.0,0.0,0.0,0.0,0.0,0.0,0.0,0.0,0.0, 1557936055339, 12:00:55.339
248, 64110.23, 50732.09, -15870.99, -20988.58, 6533.26, -3456.54, 7138.16, 1710.53, 0.026, 0.808, 0.570,0.0,0.0,0.0,0.0,0.0,0.0,0.0,0.0,0.0,0.0, 1557936055339, 12:00:55.339
249, 63669.12, 50143.90, -15843.39, -21083.97, 6597.79, -3358.46, 7218.72, 1777.66, 0.026, 0.808, 0.570,0.0,0.0,0.0,0.0,0.0,0.0,0.0,0.0,0.0,0.0, 1557936055346, 12:00:55.346
250, 63284.52, 49622.35, -15566.92, -20823.53, 6892.96, -3032.77, 7512.11, 2074.24, 0.026, 0.808, 0.570,0.0,0.0,0.0,0.0,0.0,0.0,0.0,0.0,0.0,0.0, 1557936055347, 12:00:55.347
251, 63785.93, 50304.03, -15652.64, -20744.85, 6770.52, -3203.07, 7362.87, 1931.50, 0.026, 0.808, 0.570,0.0,0.0,0.0,0.0,0.0,0.0,0.0,0.0,0.0,0.0, 1557936055355, 12:00:55.355
252, 64100.02, 50725.07, -15884.60, -20976.55, 6530.46, -3485.46, 7104.90, 1656.53, 0.026, 0.808, 0.570,0.0,0.0,0.0,0.0,0.0,0.0,0.0,0.0,0.0,0.0, 1557936055355, 12:00:55.355
253, 63768.12, 50278.53, -15912.81, -21109.93, 6540.52, -3463.05, 7124.84, 1656.60, 0.036, 0.814, 0.558,0.0,0.0,0.0,0.0,0.0,0.0,0.0,0.0,0.0,0.0, 1557936055362, 12:00:55.362
254, 63261.89, 49596.66, -15636.81, -20883.90, 6852.93, -3088.43, 7463.56, 2005.49, 0.036, 0.814, 0.558,0.0,0.0,0.0,0.0,0.0,0.0,0.0,0.0,0.0,0.0, 1557936055362, 12:00:55.362
255, 63672.92, 50146.23, -15623.94, -20712.29, 6821.42, -3157.45, 7408.73, 1960.27, 0.036, 0.814, 0.558,0.0,0.0,0.0,0.0,0.0,0.0,0.0,0.0,0.0,0.0, 1557936055368, 12:00:55.368
0, 64130.82, 50748.96, -15859.30, -20909.86, 6552.84, -3457.28, 7118.87, 1667.62, 0.036, 0.814, 0.558,0.0,0.0,0.0,0.0,0.0,0.0,0.0,0.0,0.0,0.0, 1557936055376, 12:00:55.376
1, 63899.34, 50433.71, -15936.95, -21089.70, 6516.81, -3502.74, 7089.97, 1620.03, 0.036, 0.814, 0.558,0.0,0.0,0.0,0.0,0.0,0.0,0.0,0.0,0.0,0.0, 1557936055376, 12:00:55.376
2, 63328.66, 49657.66, -15656.35, -20913.05, 6844.57, -3118.02, 7444.65, 1979.49, 0.036, 0.814, 0.558,0.0,0.0,0.0,0.0,0.0,0.0,0.0,0.0,0.0,0.0, 1557936055384, 12:00:55.384
3, 63585.01, 50005.45, -15575.90, -20695.12, 6880.36, -3094.35, 7470.29, 2027.28, 0.036, 0.814, 0.558,0.0,0.0,0.0,0.0,0.0,0.0,0.0,0.0,0.0,0.0, 1557936055384, 12:00:55.384
4, 64145.91, 50751.45, -15787.04, -20840.41, 6621.35, -3382.53, 7198.00, 1758.39, 0.036, 0.814, 0.558,0.0,0.0,0.0,0.0,0.0,0.0,0.0,0.0,0.0,0.0, 1557936055391, 12:00:55.391
5, 63994.29, 50561.28, -15944.88, -21082.41, 6482.59, -3538.88, 7052.18, 1603.25, 0.036, 0.814, 0.558,0.0,0.0,0.0,0.0,0.0,0.0,0.0,0.0,0.0,0.0, 1557936055392, 12:00:55.392
6, 63400.99, 49752.57, -15720.07, -20993.90, 6742.92, -3212.33, 7340.67, 1896.01, 0.036, 0.814, 0.558,0.0,0.0,0.0,0.0,0.0,0.0,0.0,0.0,0.0,0.0, 1557936055399, 12:00:55.399
7, 63481.93, 49859.34, -15545.68, -20717.85, 6901.06, -3069.36, 7493.35, 2060.70, 0.052, 0.826, 0.552,0.0,0.0,0.0,0.0,0.0,0.0,0.0,0.0,0.0,0.0, 1557936055399, 12:00:55.399
8, 64070.16, 50652.05, -15766.32, -20839.31, 6623.89, -3384.70, 7190.53, 1765.99, 0.052, 0.826, 0.552,0.0,0.0,0.0,0.0,0.0,0.0,0.0,0.0,0.0,0.0, 1557936055408, 12:00:55.408
9, 64077.06, 50657.12, -15905.81, -21039.50, 6495.75, -3530.15, 7055.95, 1614.89, 0.052, 0.826, 0.552,0.0,0.0,0.0,0.0,0.0,0.0,0.0,0.0,0.0,0.0, 1557936055408, 12:00:55.408
10, 63455.97, 49835.29, -15803.67, -21071.53, 6646.31, -3324.80, 7238.41, 1790.75, 0.052, 0.826, 0.552,0.0,0.0,0.0,0.0,0.0,0.0,0.0,0.0,0.0,0.0, 1557936055414, 12:00:55.414
11, 63335.07, 49678.11, -15592.71, -20796.91, 6859.19, -3116.15, 7453.35, 2010.85, 0.052, 0.826, 0.552,0.0,0.0,0.0,0.0,0.0,0.0,0.0,0.0,0.0,0.0, 1557936055414, 12:00:55.414
12, 63982.11, 50538.37, -15729.35, -20804.29, 6670.68, -3354.19, 7240.40, 1798.00, 0.052, 0.826, 0.552,0.0,0.0,0.0,0.0,0.0,0.0,0.0,0.0,0.0,0.0, 1557936055422, 12:00:55.422
13, 64108.46, 50710.27, -15909.50, -21015.58, 6485.16, -3531.55, 7055.24, 1613.95, 0.052, 0.826, 0.552,0.0,0.0,0.0,0.0,0.0,0.0,0.0,0.0,0.0,0.0, 1557936055422, 12:00:55.422
14, 63605.13, 50025.53, -15833.21, -21070.27, 6612.29, -3357.66, 7205.67, 1760.11, 0.052, 0.826, 0.552,0.0,0.0,0.0,0.0,0.0,0.0,0.0,0.0,0.0,0.0, 1557936055429, 12:00:55.429
15, 63332.84, 49652.70, -15563.05, -20776.97, 6898.58, -3050.95, 7504.69, 2065.01, 0.052, 0.826, 0.552,0.0,0.0,0.0,0.0,0.0,0.0,0.0,0.0,0.0,0.0, 1557936055437, 12:00:55.437
16, 63914.16, 50437.52, -15686.36, -20746.58, 6717.66, -3273.23, 7302.67, 1868.78, 0.052, 0.826, 0.552,0.0,0.0,0.0,0.0,0.0,0.0,0.0,0.0,0.0,0.0, 1557936055437, 12:00:55.437
17, 64139.31, 50738.64, -15905.05, -20988.60, 6493.92, -3525.56, 7067.00, 1620.10, 0.060, 0.816, 0.550,0.0,0.0,0.0,0.0,0.0,0.0,0.0,0.0,0.0,0.0, 1557936055444, 12:00:55.444
18, 63716.68, 50164.49, -15896.07, -21111.24, 6546.29, -3457.73, 7130.12, 1668.87, 0.060, 0.816, 0.550,0.0,0.0,0.0,0.0,0.0,0.0,0.0,0.0,0.0,0.0, 1557936055444, 12:00:55.444
19, 63300.94, 49594.47, -15598.86, -20840.19, 6864.60, -3088.14, 7466.53, 2019.88, 0.060, 0.816, 0.550,0.0,0.0,0.0,0.0,0.0,0.0,0.0,0.0,0.0,0.0, 1557936055451, 12:00:55.451
20, 63830.99, 50298.42, -15619.98, -20701.36, 6790.42, -3197.17, 7367.67, 1937.81, 0.060, 0.816, 0.550,0.0,0.0,0.0,0.0,0.0,0.0,0.0,0.0,0.0,0.0, 1557936055451, 12:00:55.451
21, 64202.86, 50792.62, -15831.32, -20908.51, 6553.67, -3459.18, 7119.19, 1681.92, 0.060, 0.816, 0.550,0.0,0.0,0.0,0.0,0.0,0.0,0.0,0.0,0.0,0.0, 1557936055459, 12:00:55.459
22, 63879.29, 50359.57, -15885.94, -21079.64, 6528.81, -3473.84, 7105.28, 1654.16, 0.060, 0.816, 0.550,0.0,0.0,0.0,0.0,0.0,0.0,0.0,0.0,0.0,0.0, 1557936055459, 12:00:55.459
23, 63305.52, 49593.31, -15646.98, -20921.52, 6804.45, -3158.12, 7399.88, 1946.26, 0.060, 0.816, 0.550,0.0,0.0,0.0,0.0,0.0,0.0,0.0,0.0,0.0,0.0, 1557936055467, 12:00:55.467
24, 63681.08, 50100.96, -15620.87, -20744.85, 6789.25, -3211.50, 7364.07, 1918.25, 0.060, 0.816, 0.550,0.0,0.0,0.0,0.0,0.0,0.0,0.0,0.0,0.0,0.0, 1557936055467, 12:00:55.467
25, 64174.83, 50757.21, -15829.26, -20913.77, 6544.01, -3476.79, 7111.07, 1665.85, 0.060, 0.816, 0.550,0.0,0.0,0.0,0.0,0.0,0.0,0.0,0.0,0.0,0.0, 1557936055474, 12:00:55.474
26, 63946.57, 50455.17, -15949.29, -21128.41, 6446.71, -3569.44, 7018.58, 1563.82, 0.060, 0.816, 0.550,0.0,0.0,0.0,0.0,0.0,0.0,0.0,0.0,0.0,0.0, 1557936055474, 12:00:55.474
27, 63327.36, 49623.66, -15726.11, -21013.59, 6716.12, -3237.69, 7317.80, 1865.83, 0.048, 0.812, 0.546,0.0,0.0,0.0,0.0,0.0,0.0,0.0,0.0,0.0,0.0, 1557936055482, 12:00:55.482
28, 63544.29, 49920.14, -15611.44, -20765.51, 6800.56, -3174.75, 7390.31, 1949.61, 0.048, 0.812, 0.546,0.0,0.0,0.0,0.0,0.0,0.0,0.0,0.0,0.0,0.0, 1557936055482, 12:00:55.482
29, 64127.51, 50692.14, -15814.53, -20889.87, 6550.58, -3457.17, 7119.57, 1679.53, 0.048, 0.812, 0.546,0.0,0.0,0.0,0.0,0.0,0.0,0.0,0.0,0.0,0.0, 1557936055489, 12:00:55.489
30, 64021.90, 50549.03, -15967.48, -21116.83, 6417.72, -3603.03, 6981.41, 1523.83, 0.048, 0.812, 0.546,0.0,0.0,0.0,0.0,0.0,0.0,0.0,0.0,0.0,0.0, 1557936055497, 12:00:55.497
31, 63407.27, 49714.57, -15784.15, -21070.83, 6651.34, -3315.32, 7243.78, 1786.51, 0.048, 0.812, 0.546,0.0,0.0,0.0,0.0,0.0,0.0,0.0,0.0,0.0,0.0, 1557936055497, 12:00:55.497
32, 63469.48, 49792.71, -15573.31, -20758.18, 6848.31, -3114.69, 7438.75, 2008.13, 0.048, 0.812, 0.546,0.0,0.0,0.0,0.0,0.0,0.0,0.0,0.0,0.0,0.0, 1557936055504, 12:00:55.504
33, 64096.17, 50629.80, -15762.05, -20835.60, 6610.06, -3394.69, 7176.16, 1745.31, 0.048, 0.812, 0.546,0.0,0.0,0.0,0.0,0.0,0.0,0.0,0.0,0.0,0.0, 1557936055504, 12:00:55.504
34, 64114.19, 50652.72, -15931.85, -21070.36, 6444.07, -3577.22, 7008.46, 1561.96, 0.048, 0.812, 0.546,0.0,0.0,0.0,0.0,0.0,0.0,0.0,0.0,0.0,0.0, 1557936055511, 12:00:55.511
35, 63533.40, 49869.18, -15816.81, -21106.46, 6605.48, -3370.42, 7195.07, 1740.04, 0.048, 0.812, 0.546,0.0,0.0,0.0,0.0,0.0,0.0,0.0,0.0,0.0,0.0, 1557936055512, 12:00:55.512
36, 63413.75, 49702.86, -15559.41, -20787.37, 6861.11, -3100.79, 7455.18, 2014.32, 0.048, 0.812, 0.546,0.0,0.0,0.0,0.0,0.0,0.0,0.0,0.0,0.0,0.0, 1557936055519, 12:00:55.519
37, 64026.50, 50531.13, -15715.60, -20808.96, 6643.50, -3353.34, 7216.69, 1782.80, 0.044, 0.816, 0.534,0.0,0.0,0.0,0.0,0.0,0.0,0.0,0.0,0.0,0.0, 1557936055520, 12:00:55.520
38, 64073.13, 50560.74, -15757.06, -20956.23, 6622.51, -3357.50, 7197.37, 1746.70, 0.044, 0.816, 0.534,0.0,0.0,0.0,0.0,0.0,0.0,0.0,0.0,0.0,0.0, 1557936055527, 12:00:55.527
39, 63593.37, 49873.76, -15498.74, -20801.18, 6935.99, -3038.25, 7523.78, 2066.33, 0.044, 0.816, 0.534,0.0,0.0,0.0,0.0,0.0,0.0,0.0,0.0,0.0,0.0, 1557936055527, 12:00:55.527
40, 63591.18, 49947.47, -15599.80, -20755.94, 6792.90, -3213.20, 7377.01, 1943.33, 0.044, 0.816, 0.534,0.0,0.0,0.0,0.0,0.0,0.0,0.0,0.0,0.0,0.0, 1557936055534, 12:00:55.534
41, 64043.24, 50590.27, -15846.72, -20934.11, 6492.71, -3508.02, 7067.26, 1647.79, 0.044, 0.816, 0.534,0.0,0.0,0.0,0.0,0.0,0.0,0.0,0.0,0.0,0.0, 1557936055534, 12:00:55.534
42, 64125.92, 50660.74, -15849.67, -21030.58, 6510.08, -3475.52, 7084.59, 1650.14, 0.044, 0.816, 0.534,0.0,0.0,0.0,0.0,0.0,0.0,0.0,0.0,0.0,0.0, 1557936055542, 12:00:55.542
43, 63651.33, 49968.29, -15563.99, -20873.71, 6856.13, -3117.82, 7442.10, 1989.39, 0.044, 0.816, 0.534,0.0,0.0,0.0,0.0,0.0,0.0,0.0,0.0,0.0,0.0, 1557936055543, 12:00:55.543
44, 63510.33, 49848.16, -15596.13, -20774.02, 6802.42, -3218.85, 7385.55, 1935.80, 0.044, 0.816, 0.534,0.0,0.0,0.0,0.0,0.0,0.0,0.0,0.0,0.0,0.0, 1557936055549, 12:00:55.549
45, 63924.55, 50460.71, -15879.37, -20950.45, 6470.29, -3545.84, 7041.78, 1607.22, 0.044, 0.816, 0.534,0.0,0.0,0.0,0.0,0.0,0.0,0.0,0.0,0.0,0.0, 1557936055549, 12:00:55.549
46, 64115.82, 50679.74, -15940.84, -21071.10, 6409.50, -3571.41, 6987.47, 1558.88, 0.044, 0.816, 0.534,0.0,0.0,0.0,0.0,0.0,0.0,0.0,0.0,0.0,0.0, 1557936055556, 12:00:55.556
47, 63697.66, 50050.65, -15675.59, -20950.54, 6742.43, -3220.66, 7326.32, 1876.43, 0.046, 0.824, 0.526,0.0,0.0,0.0,0.0,0.0,0.0,0.0,0.0,0.0,0.0, 1557936055564, 12:00:55.564
48, 63485.90, 49792.51, -15556.93, -20738.30, 6853.96, -3148.15, 7439.96, 1994.20, 0.046, 0.824, 0.526,0.0,0.0,0.0,0.0,0.0,0.0,0.0,0.0,0.0,0.0, 1557936055564, 12:00:55.564
49, 63885.62, 50383.82, -15810.82, -20868.19, 6541.19, -3466.62, 7120.89, 1694.62, 0.046, 0.824, 0.526,0.0,0.0,0.0,0.0,0.0,0.0,0.0,0.0,0.0,0.0, 1557936055572, 12:00:55.572
50, 64183.99, 50755.36, -15908.03, -20998.75, 6437.15, -3547.76, 7024.84, 1595.67, 0.046, 0.824, 0.526,0.0,0.0,0.0,0.0,0.0,0.0,0.0,0.0,0.0,0.0, 1557936055572, 12:00:55.572
51, 63846.26, 50223.88, -15678.85, -20926.48, 6730.47, -3227.64, 7331.84, 1882.93, 0.046, 0.824, 0.526,0.0,0.0,0.0,0.0,0.0,0.0,0.0,0.0,0.0,0.0, 1557936055580, 12:00:55.580
52, 63483.09, 49754.07, -15529.97, -20728.27, 6893.70, -3105.37, 7497.49, 2047.22, 0.046, 0.824, 0.526,0.0,0.0,0.0,0.0,0.0,0.0,0.0,0.0,0.0,0.0, 1557936055580, 12:00:55.580
53, 63800.84, 50255.06, -15795.24, -20846.60, 6571.21, -3459.36, 7160.40, 1721.93, 0.046, 0.824, 0.526,0.0,0.0,0.0,0.0,0.0,0.0,0.0,0.0,0.0,0.0, 1557936055587, 12:00:55.587
54, 64165.62, 50735.75, -15958.74, -21014.75, 6390.12, -3589.62, 6974.39, 1537.04, 0.046, 0.824, 0.526,0.0,0.0,0.0,0.0,0.0,0.0,0.0,0.0,0.0,0.0, 1557936055587, 12:00:55.587
55, 63919.84, 50329.91, -15770.85, -20982.63, 6634.13, -3311.84, 7230.41, 1780.81, 0.046, 0.824, 0.526,0.0,0.0,0.0,0.0,0.0,0.0,0.0,0.0,0.0,0.0, 1557936055594, 12:00:55.594
56, 63479.02, 49730.62, -15540.14, -20759.14, 6896.74, -3073.74, 7505.20, 2052.16, 0.046, 0.824, 0.526,0.0,0.0,0.0,0.0,0.0,0.0,0.0,0.0,0.0,0.0, 1557936055594, 12:00:55.594
57, 63733.00, 50145.71, -15739.18, -20808.00, 6627.05, -3375.72, 7222.63, 1785.41, 0.056, 0.830, 0.524,0.0,0.0,0.0,0.0,0.0,0.0,0.0,0.0,0.0,0.0, 1557936055602, 12:00:55.602
58, 64162.78, 50720.71, -15922.53, -20976.22, 6404.65, -3591.41, 6984.38, 1555.28, 0.056, 0.830, 0.524,0.0,0.0,0.0,0.0,0.0,0.0,0.0,0.0,0.0,0.0, 1557936055603, 12:00:55.603
59, 64018.01, 50461.88, -15802.39, -21003.78, 6569.58, -3396.03, 7155.42, 1714.24, 0.056, 0.830, 0.524,0.0,0.0,0.0,0.0,0.0,0.0,0.0,0.0,0.0,0.0, 1557936055610, 12:00:55.610
60, 63554.46, 49806.57, -15496.60, -20753.33, 6925.13, -3051.08, 7524.51, 2068.23, 0.056, 0.830, 0.524,0.0,0.0,0.0,0.0,0.0,0.0,0.0,0.0,0.0,0.0, 1557936055610, 12:00:55.610
61, 63659.02, 50039.21, -15689.25, -20777.78, 6678.66, -3327.59, 7277.82, 1841.67, 0.056, 0.830, 0.524,0.0,0.0,0.0,0.0,0.0,0.0,0.0,0.0,0.0,0.0, 1557936055616, 12:00:55.616
62, 64114.66, 50666.62, -15917.15, -20963.41, 6411.58, -3591.23, 6996.65, 1560.73, 0.056, 0.830, 0.524,0.0,0.0,0.0,0.0,0.0,0.0,0.0,0.0,0.0,0.0, 1557936055624, 12:00:55.624
63, 64062.78, 50545.14, -15885.32, -21058.74, 6474.16, -3510.86, 7060.76, 1606.26, 0.056, 0.830, 0.524,0.0,0.0,0.0,0.0,0.0,0.0,0.0,0.0,0.0,0.0, 1557936055624, 12:00:55.624
64, 63571.64, 49824.47, -15568.30, -20852.37, 6847.46, -3150.72, 7446.30, 1979.67, 0.056, 0.830, 0.524,0.0,0.0,0.0,0.0,0.0,0.0,0.0,0.0,0.0,0.0, 1557936055633, 12:00:55.633
65, 63580.43, 49910.82, -15641.53, -20773.26, 6724.21, -3277.55, 7322.30, 1881.66, 0.056, 0.830, 0.524,0.0,0.0,0.0,0.0,0.0,0.0,0.0,0.0,0.0,0.0, 1557936055633, 12:00:55.633
66, 64053.64, 50573.32, -15887.60, -20951.18, 6416.67, -3567.29, 7000.70, 1577.09, 0.056, 0.830, 0.524,0.0,0.0,0.0,0.0,0.0,0.0,0.0,0.0,0.0,0.0, 1557936055640, 12:00:55.640
67, 64160.59, 50666.80, -15880.62, -21041.53, 6445.10, -3524.00, 7033.67, 1596.63, 0.060, 0.838, 0.524,0.0,0.0,0.0,0.0,0.0,0.0,0.0,0.0,0.0,0.0, 1557936055640, 12:00:55.640
68, 63677.75, 49951.21, -15579.10, -20873.80, 6829.15, -3125.29, 7428.80, 1986.58, 0.060, 0.838, 0.524,0.0,0.0,0.0,0.0,0.0,0.0,0.0,0.0,0.0,0.0, 1557936055646, 12:00:55.646
69, 63541.69, 49826.66, -15581.15, -20748.25, 6801.59, -3206.13, 7411.59, 1976.54, 0.060, 0.838, 0.524,0.0,0.0,0.0,0.0,0.0,0.0,0.0,0.0,0.0,0.0, 1557936055647, 12:00:55.647
70, 63985.31, 50476.85, -15846.18, -20920.96, 6475.95, -3534.46, 7071.33, 1645.49, 0.060, 0.838, 0.524,0.0,0.0,0.0,0.0,0.0,0.0,0.0,0.0,0.0,0.0, 1557936055654, 12:00:55.654
71, 64191.88, 50721.98, -15911.40, -21047.05, 6413.85, -3540.72, 7014.36, 1584.25, 0.060, 0.838, 0.524,0.0,0.0,0.0,0.0,0.0,0.0,0.0,0.0,0.0,0.0, 1557936055654, 12:00:55.654
72, 63770.89, 50076.87, -15632.79, -20930.51, 6754.52, -3190.55, 7358.93, 1902.49, 0.060, 0.838, 0.524,0.0,0.0,0.0,0.0,0.0,0.0,0.0,0.0,0.0,0.0, 1557936055662, 12:00:55.662
73, 63517.38, 49768.15, -15534.91, -20737.77, 6861.49, -3125.58, 7473.55, 2024.82, 0.060, 0.838, 0.524,0.0,0.0,0.0,0.0,0.0,0.0,0.0,0.0,0.0,0.0, 1557936055662, 12:00:55.662
74, 63926.57, 50376.38, -15800.96, -20882.09, 6525.66, -3473.06, 7131.23, 1698.71, 0.060, 0.838, 0.524,0.0,0.0,0.0,0.0,0.0,0.0,0.0,0.0,0.0,0.0, 1557936055670, 12:00:55.670
75, 64228.34, 50761.68, -15921.68, -21040.93, 6391.35, -3586.00, 6988.07, 1554.70, 0.060, 0.838, 0.524,0.0,0.0,0.0,0.0,0.0,0.0,0.0,0.0,0.0,0.0, 1557936055670, 12:00:55.670
76, 63885.66, 50224.28, -15688.15, -20968.04, 6681.36, -3262.62, 7292.90, 1844.15, 0.060, 0.838, 0.524,0.0,0.0,0.0,0.0,0.0,0.0,0.0,0.0,0.0,0.0, 1557936055677, 12:00:55.677
77, 63499.02, 49720.07, -15514.73, -20755.85, 6881.21, -3116.28, 7502.09, 2040.33, 0.058, 0.826, 0.526,0.0,0.0,0.0,0.0,0.0,0.0,0.0,0.0,0.0,0.0, 1557936055684, 12:00:55.684
78, 63827.86, 50246.14, -15770.97, -20862.42, 6546.13, -3433.52, 7166.71, 1725.35, 0.058, 0.826, 0.526,0.0,0.0,0.0,0.0,0.0,0.0,0.0,0.0,0.0,0.0, 1557936055684, 12:00:55.684
79, 64223.82, 50762.13, -15923.81, -21029.01, 6376.15, -3610.14, 6970.03, 1533.80, 0.058, 0.826, 0.526,0.0,0.0,0.0,0.0,0.0,0.0,0.0,0.0,0.0,0.0, 1557936055691, 12:00:55.691
80, 63989.42, 50363.89, -15739.07, -21001.23, 6619.04, -3330.81, 7233.65, 1780.34, 0.058, 0.826, 0.526,0.0,0.0,0.0,0.0,0.0,0.0,0.0,0.0,0.0,0.0, 1557936055692, 12:00:55.692
81, 63537.02, 49732.16, -15472.82, -20761.84, 6911.99, -3051.15, 7542.06, 2085.93, 0.058, 0.826, 0.526,0.0,0.0,0.0,0.0,0.0,0.0,0.0,0.0,0.0,0.0, 1557936055701, 12:00:55.701
82, 63762.37, 50123.47, -15714.53, -20832.43, 6609.48, -3376.30, 7235.24, 1806.96, 0.058, 0.826, 0.526,0.0,0.0,0.0,0.0,0.0,0.0,0.0,0.0,0.0,0.0, 1557936055701, 12:00:55.701
83, 64198.75, 50716.53, -15932.21, -21031.85, 6358.80, -3618.99, 6971.80, 1544.17, 0.058, 0.826, 0.526,0.0,0.0,0.0,0.0,0.0,0.0,0.0,0.0,0.0,0.0, 1557936055706, 12:00:55.706
84, 64092.11, 50497.02, -15785.16, -21043.52, 6550.20, -3405.65, 7164.31, 1714.00, 0.058, 0.826, 0.526,0.0,0.0,0.0,0.0,0.0,0.0,0.0,0.0,0.0,0.0, 1557936055707, 12:00:55.707
85, 63612.57, 49803.57, -15455.87, -20775.92, 6931.86, -3028.75, 7560.79, 2101.42, 0.058, 0.826, 0.526,0.0,0.0,0.0,0.0,0.0,0.0,0.0,0.0,0.0,0.0, 1557936055714, 12:00:55.714
86, 63701.24, 50022.49, -15644.19, -20780.62, 6685.43, -3302.74, 7315.08, 1878.57, 0.058, 0.826, 0.526,0.0,0.0,0.0,0.0,0.0,0.0,0.0,0.0,0.0,0.0, 1557936055715, 12:00:55.715
87, 64165.55, 50664.54, -15897.77, -20986.21, 6379.43, -3597.94, 7005.08, 1579.91, 0.062, 0.820, 0.536,0.0,0.0,0.0,0.0,0.0,0.0,0.0,0.0,0.0,0.0, 1557936055722, 12:00:55.722
88, 64173.18, 50609.29, -15823.11, -21041.80, 6502.17, -3483.09, 7110.87, 1674.15, 0.062, 0.820, 0.536,0.0,0.0,0.0,0.0,0.0,0.0,0.0,0.0,0.0,0.0, 1557936055722, 12:00:55.722
89, 63655.15, 49864.01, -15506.81, -20828.47, 6873.63, -3059.66, 7503.55, 2051.20, 0.062, 0.820, 0.536,0.0,0.0,0.0,0.0,0.0,0.0,0.0,0.0,0.0,0.0, 1557936055729, 12:00:55.729
90, 63642.77, 49918.44, -15563.54, -20739.31, 6771.71, -3222.27, 7390.45, 1947.75, 0.062, 0.820, 0.536,0.0,0.0,0.0,0.0,0.0,0.0,0.0,0.0,0.0,0.0, 1557936055730, 12:00:55.730
91, 64127.02, 50608.13, -15811.42, -20915.29, 6454.98, -3550.42, 7060.60, 1624.28, 0.062, 0.820, 0.536,0.0,0.0,0.0,0.0,0.0,0.0,0.0,0.0,0.0,0.0, 1557936055736, 12:00:55.736
92, 64235.13, 50711.03, -15836.66, -21027.20, 6443.78, -3533.18, 7058.79, 1610.69, 0.062, 0.820, 0.536,0.0,0.0,0.0,0.0,0.0,0.0,0.0,0.0,0.0,0.0, 1557936055744, 12:00:55.744
93, 63747.64, 49980.98, -15523.78, -20863.52, 6836.42, -3105.13, 7454.73, 1993.75, 0.062, 0.820, 0.536,0.0,0.0,0.0,0.0,0.0,0.0,0.0,0.0,0.0,0.0, 1557936055744, 12:00:55.744
94, 63571.78, 49807.04, -15507.01, -20722.35, 6825.75, -3169.14, 7451.69, 1996.55, 0.062, 0.820, 0.536,0.0,0.0,0.0,0.0,0.0,0.0,0.0,0.0,0.0,0.0, 1557936055752, 12:00:55.752
95, 64040.67, 50490.98, -15766.38, -20876.33, 6503.98, -3497.53, 7116.37, 1674.50, 0.062, 0.820, 0.536,0.0,0.0,0.0,0.0,0.0,0.0,0.0,0.0,0.0,0.0, 1557936055752, 12:00:55.752
96, 64269.51, 50769.59, -15851.12, -21020.05, 6420.76, -3557.70, 7031.79, 1581.68, 0.062, 0.820, 0.536,0.0,0.0,0.0,0.0,0.0,0.0,0.0,0.0,0.0,0.0, 1557936055760, 12:00:55.760
97, 63839.69, 50113.88, -15574.00, -20910.88, 6765.83, -3182.13, 7397.53, 1925.67, 0.046, 0.828, 0.556,0.0,0.0,0.0,0.0,0.0,0.0,0.0,0.0,0.0,0.0, 1557936055760, 12:00:55.760
98, 63555.39, 49762.49, -15442.62, -20698.01, 6893.64, -3085.93, 7536.87, 2068.83, 0.046, 0.828, 0.556,0.0,0.0,0.0,0.0,0.0,0.0,0.0,0.0,0.0,0.0, 1557936055768, 12:00:55.768
99, 63973.51, 50395.20, -15715.33, -20829.75, 6558.76, -3436.45, 7182.93, 1731.99, 0.046, 0.828, 0.556,0.0,0.0,0.0,0.0,0.0,0.0,0.0,0.0,0.0,0.0, 1557936055768, 12:00:55.768
100, 64288.55, 50805.22, -15874.43, -21018.95, 6393.07, -3591.10, 7019.52, 1561.90, 0.046, 0.828, 0.556,0.0,0.0,0.0,0.0,0.0,0.0,0.0,0.0,0.0,0.0, 1557936055775, 12:00:55.775
101, 63953.03, 50275.64, -15637.35, -20946.58, 6692.22, -3241.38, 7350.48, 1884.14, 0.046, 0.828, 0.556,0.0,0.0,0.0,0.0,0.0,0.0,0.0,0.0,0.0,0.0, 1557936055775, 12:00:55.775
102, 63554.64, 49741.88, -15416.71, -20696.33, 6942.23, -3022.81, 7604.22, 2141.97, 0.046, 0.828, 0.556,0.0,0.0,0.0,0.0,0.0,0.0,0.0,0.0,0.0,0.0, 1557936055783, 12:00:55.783
103, 63905.51, 50284.45, -15649.46, -20767.99, 6645.82, -3339.82, 7296.19, 1857.77, 0.046, 0.828, 0.556,0.0,0.0,0.0,0.0,0.0,0.0,0.0,0.0,0.0,0.0, 1557936055783, 12:00:55.783
104, 64327.00, 50837.81, -15829.48, -20936.45, 6437.73, -3534.95, 7078.98, 1635.77, 0.046, 0.828, 0.556,0.0,0.0,0.0,0.0,0.0,0.0,0.0,0.0,0.0,0.0, 1557936055789, 12:00:55.789
105, 64079.57, 50436.24, -15690.46, -20948.72, 6634.02, -3314.03, 7283.63, 1815.16, 0.046, 0.828, 0.556,0.0,0.0,0.0,0.0,0.0,0.0,0.0,0.0,0.0,0.0, 1557936055789, 12:00:55.789
106, 63595.88, 49765.53, -15424.00, -20708.22, 6946.94, -3019.70, 7608.51, 2126.34, 0.046, 0.828, 0.556,0.0,0.0,0.0,0.0,0.0,0.0,0.0,0.0,0.0,0.0, 1557936055796, 12:00:55.796
107, 63826.90, 50156.96, -15628.88, -20729.77, 6677.65, -3282.15, 7343.84, 1883.72, 0.062, 0.804, 0.574,0.0,0.0,0.0,0.0,0.0,0.0,0.0,0.0,0.0,0.0, 1557936055796, 12:00:55.796
108, 64285.67, 50783.25, -15869.78, -20927.15, 6408.94, -3557.95, 7051.84, 1588.90, 0.062, 0.804, 0.574,0.0,0.0,0.0,0.0,0.0,0.0,0.0,0.0,0.0,0.0, 1557936055805, 12:00:55.805
109, 64169.44, 50554.61, -15781.81, -20974.14, 6551.34, -3395.03, 7191.36, 1706.29, 0.062, 0.804, 0.574,0.0,0.0,0.0,0.0,0.0,0.0,0.0,0.0,0.0,0.0, 1557936055812, 12:00:55.812
110, 63645.67, 49795.13, -15477.51, -20745.14, 6917.93, -3023.25, 7578.94, 2084.23, 0.062, 0.804, 0.574,0.0,0.0,0.0,0.0,0.0,0.0,0.0,0.0,0.0,0.0, 1557936055812, 12:00:55.812
111, 63761.41, 50022.55, -15600.31, -20694.34, 6746.90, -3241.05, 7397.56, 1910.05, 0.062, 0.804, 0.574,0.0,0.0,0.0,0.0,0.0,0.0,0.0,0.0,0.0,0.0, 1557936055819, 12:00:55.819
112, 64277.11, 50722.79, -15842.51, -20868.28, 6455.03, -3516.24, 7100.84, 1620.79, 0.062, 0.804, 0.574,0.0,0.0,0.0,0.0,0.0,0.0,0.0,0.0,0.0,0.0, 1557936055819, 12:00:55.819
113, 64283.08, 50670.09, -15833.17, -20977.45, 6501.76, -3440.43, 7150.75, 1663.15, 0.062, 0.804, 0.574,0.0,0.0,0.0,0.0,0.0,0.0,0.0,0.0,0.0,0.0, 1557936055827, 12:00:55.827
114, 63770.80, 49907.49, -15503.75, -20766.60, 6909.95, -3026.25, 7565.51, 2055.47, 0.062, 0.804, 0.574,0.0,0.0,0.0,0.0,0.0,0.0,0.0,0.0,0.0,0.0, 1557936055827, 12:00:55.827
115, 63744.18, 49933.37, -15540.38, -20642.44, 6836.01, -3145.45, 7493.60, 1989.37, 0.062, 0.804, 0.574,0.0,0.0,0.0,0.0,0.0,0.0,0.0,0.0,0.0,0.0, 1557936055835, 12:00:55.835
116, 64229.88, 50627.55, -15827.60, -20836.99, 6494.88, -3505.83, 7132.64, 1637.13, 0.062, 0.804, 0.574,0.0,0.0,0.0,0.0,0.0,0.0,0.0,0.0,0.0,0.0, 1557936055835, 12:00:55.835
117, 64382.54, 50781.11, -15871.10, -20958.45, 6461.42, -3468.70, 7103.59, 1612.10, 0.102, 0.770, 0.588,0.0,0.0,0.0,0.0,0.0,0.0,0.0,0.0,0.0,0.0, 1557936055842, 12:00:55.842
118, 63872.97, 50029.19, -15598.63, -20834.75, 6825.28, -3099.85, 7465.93, 1959.71, 0.102, 0.770, 0.588,0.0,0.0,0.0,0.0,0.0,0.0,0.0,0.0,0.0,0.0, 1557936055842, 12:00:55.842
119, 63675.51, 49820.00, -15543.76, -20669.30, 6864.06, -3113.96, 7506.30, 2002.43, 0.102, 0.770, 0.588,0.0,0.0,0.0,0.0,0.0,0.0,0.0,0.0,0.0,0.0, 1557936055849, 12:00:55.849
120, 64145.23, 50509.20, -15818.93, -20832.74, 6513.54, -3468.88, 7146.48, 1656.96, 0.102, 0.770, 0.588,0.0,0.0,0.0,0.0,0.0,0.0,0.0,0.0,0.0,0.0, 1557936055850, 12:00:55.850
121, 64401.05, 50821.07, -15924.81, -20991.93, 6403.64, -3554.04, 7034.50, 1542.63, 0.102, 0.770, 0.588,0.0,0.0,0.0,0.0,0.0,0.0,0.0,0.0,0.0,0.0, 1557936055857, 12:00:55.857
122, 64008.24, 50194.48, -15635.65, -20872.62, 6769.27, -3162.53, 7406.16, 1894.85, 0.102, 0.770, 0.588,0.0,0.0,0.0,0.0,0.0,0.0,0.0,0.0,0.0,0.0, 1557936055858, 12:00:55.858
123, 63687.88, 49787.75, -15478.18, -20650.35, 6917.48, -3041.49, 7563.11, 2057.12, 0.102, 0.770, 0.588,0.0,0.0,0.0,0.0,0.0,0.0,0.0,0.0,0.0,0.0, 1557936055864, 12:00:55.864
124, 64090.50, 50405.84, -15733.84, -20782.34, 6577.98, -3403.12, 7205.75, 1717.08, 0.102, 0.770, 0.588,0.0,0.0,0.0,0.0,0.0,0.0,0.0,0.0,0.0,0.0, 1557936055872, 12:00:55.872
125, 64485.21, 50903.48, -15840.05, -20923.18, 6444.37, -3516.24, 7065.83, 1585.25, 0.102, 0.770, 0.588,0.0,0.0,0.0,0.0,0.0,0.0,0.0,0.0,0.0,0.0, 1557936055873, 12:00:55.873
126, 64148.36, 50372.52, -15642.35, -20900.06, 6707.74, -3227.79, 7335.66, 1838.05, 0.102, 0.770, 0.588,0.0,0.0,0.0,0.0,0.0,0.0,0.0,0.0,0.0,0.0, 1557936055879, 12:00:55.879
127, 63687.27, 49761.60, -15434.57, -20691.08, 6944.04, -3029.09, 7577.04, 2076.72, 0.098, 0.786, 0.588,0.0,0.0,0.0,0.0,0.0,0.0,0.0,0.0,0.0,0.0, 1557936055879, 12:00:55.879
128, 64013.34, 50282.91, -15653.19, -20758.20, 6639.74, -3358.51, 7260.25, 1787.09, 0.098, 0.786, 0.588,0.0,0.0,0.0,0.0,0.0,0.0,0.0,0.0,0.0,0.0, 1557936055887, 12:00:55.887
129, 64453.27, 50865.53, -15840.88, -20944.54, 6413.34, -3576.55, 7028.35, 1567.04, 0.098, 0.786, 0.588,0.0,0.0,0.0,0.0,0.0,0.0,0.0,0.0,0.0,0.0, 1557936055887, 12:00:55.887
130, 64225.07, 50487.43, -15702.66, -20970.23, 6614.31, -3310.81, 7249.43, 1775.11, 0.098, 0.786, 0.588,0.0,0.0,0.0,0.0,0.0,0.0,0.0,0.0,0.0,0.0, 1557936055894, 12:00:55.894
131, 63738.10, 49794.30, -15387.70, -20707.19, 6973.36, -2972.78, 7623.49, 2138.75, 0.098, 0.786, 0.588,0.0,0.0,0.0,0.0,0.0,0.0,0.0,0.0,0.0,0.0, 1557936055894, 12:00:55.894
132, 63950.15, 50158.34, -15567.10, -20720.09, 6715.72, -3261.28, 7364.16, 1899.23, 0.098, 0.786, 0.588,0.0,0.0,0.0,0.0,0.0,0.0,0.0,0.0,0.0,0.0, 1557936055902, 12:00:55.902
133, 64434.78, 50825.65, -15795.66, -20911.71, 6430.84, -3529.16, 7064.29, 1611.40, 0.098, 0.786, 0.588,0.0,0.0,0.0,0.0,0.0,0.0,0.0,0.0,0.0,0.0, 1557936055902, 12:00:55.902
134, 64364.02, 50659.67, -15698.86, -20953.53, 6583.84, -3363.07, 7203.72, 1737.62, 0.098, 0.786, 0.588,0.0,0.0,0.0,0.0,0.0,0.0,0.0,0.0,0.0,0.0, 1557936055910, 12:00:55.910
135, 63826.48, 49889.29, -15384.26, -20733.50, 6963.77, -2986.08, 7616.60, 2121.72, 0.098, 0.786, 0.588,0.0,0.0,0.0,0.0,0.0,0.0,0.0,0.0,0.0,0.0, 1557936055910, 12:00:55.910
136, 63894.76, 50065.63, -15491.66, -20679.36, 6804.99, -3191.07, 7458.96, 1974.58, 0.098, 0.786, 0.588,0.0,0.0,0.0,0.0,0.0,0.0,0.0,0.0,0.0,0.0, 1557936055918, 12:00:55.918
137, 64403.55, 50777.75, -15744.10, -20861.24, 6487.35, -3489.38, 7137.38, 1666.93, 0.084, 0.790, 0.600,0.0,0.0,0.0,0.0,0.0,0.0,0.0,0.0,0.0,0.0, 1557936055918, 12:00:55.918
138, 64436.57, 50774.06, -15743.29, -20973.63, 6523.76, -3433.59, 7172.29, 1690.19, 0.084, 0.790, 0.600,0.0,0.0,0.0,0.0,0.0,0.0,0.0,0.0,0.0,0.0, 1557936055924, 12:00:55.924
139, 63882.54, 49971.59, -15453.03, -20821.01, 6889.21, -3061.43, 7539.80, 2040.60, 0.084, 0.790, 0.600,0.0,0.0,0.0,0.0,0.0,0.0,0.0,0.0,0.0,0.0, 1557936055931, 12:00:55.931
140, 63781.41, 49915.36, -15488.89, -20714.19, 6804.56, -3176.16, 7461.26, 1981.80, 0.084, 0.790, 0.600,0.0,0.0,0.0,0.0,0.0,0.0,0.0,0.0,0.0,0.0, 1557936055932, 12:00:55.932
141, 64289.49, 50639.80, -15747.25, -20872.93, 6480.08, -3494.90, 7124.01, 1660.71, 0.084, 0.790, 0.600,0.0,0.0,0.0,0.0,0.0,0.0,0.0,0.0,0.0,0.0, 1557936055939, 12:00:55.939
142, 64478.57, 50841.57, -15784.71, -20997.14, 6454.36, -3501.51, 7098.94, 1625.31, 0.084, 0.790, 0.600,0.0,0.0,0.0,0.0,0.0,0.0,0.0,0.0,0.0,0.0, 1557936055939, 12:00:55.939
143, 64016.94, 50135.12, -15462.53, -20835.87, 6853.00, -3079.38, 7512.33, 2024.64, 0.084, 0.790, 0.600,0.0,0.0,0.0,0.0,0.0,0.0,0.0,0.0,0.0,0.0, 1557936055948, 12:00:55.948
144, 63793.20, 49882.36, -15383.19, -20648.90, 6907.05, -3057.61, 7571.41, 2097.13, 0.084, 0.790, 0.600,0.0,0.0,0.0,0.0,0.0,0.0,0.0,0.0,0.0,0.0, 1557936055948, 12:00:55.948
145, 64225.81, 50540.60, -15686.70, -20832.36, 6545.10, -3443.22, 7173.79, 1720.32, 0.084, 0.790, 0.600,0.0,0.0,0.0,0.0,0.0,0.0,0.0,0.0,0.0,0.0, 1557936055954, 12:00:55.954
146, 64488.87, 50873.89, -15822.87, -21017.81, 6397.94, -3564.57, 7023.30, 1570.50, 0.084, 0.790, 0.600,0.0,0.0,0.0,0.0,0.0,0.0,0.0,0.0,0.0,0.0, 1557936055954, 12:00:55.954
147, 64087.41, 50249.87, -15559.92, -20926.44, 6739.19, -3190.18, 7388.01, 1910.43, 0.054, 0.782, 0.604,0.0,0.0,0.0,0.0,0.0,0.0,0.0,0.0,0.0,0.0, 1557936055962, 12:00:55.962
148, 63731.44, 49793.05, -15389.60, -20699.44, 6921.73, -3041.96, 7589.02, 2107.19, 0.054, 0.782, 0.604,0.0,0.0,0.0,0.0,0.0,0.0,0.0,0.0,0.0,0.0, 1557936055962, 12:00:55.962
149, 64113.05, 50385.55, -15665.08, -20826.73, 6565.42, -3406.25, 7227.46, 1765.36, 0.054, 0.782, 0.604,0.0,0.0,0.0,0.0,0.0,0.0,0.0,0.0,0.0,0.0, 1557936055970, 12:00:55.970
150, 64501.12, 50889.76, -15827.02, -21005.30, 6379.17, -3576.75, 7030.14, 1569.52, 0.054, 0.782, 0.604,0.0,0.0,0.0,0.0,0.0,0.0,0.0,0.0,0.0,0.0, 1557936055970, 12:00:55.970
151, 64231.96, 50434.00, -15593.83, -20943.05, 6685.21, -3242.46, 7337.76, 1861.36, 0.054, 0.782, 0.604,0.0,0.0,0.0,0.0,0.0,0.0,0.0,0.0,0.0,0.0, 1557936055978, 12:00:55.978
152, 63774.06, 49814.19, -15339.46, -20693.09, 6970.32, -2984.32, 7625.81, 2148.85, 0.054, 0.782, 0.604,0.0,0.0,0.0,0.0,0.0,0.0,0.0,0.0,0.0,0.0, 1557936055978, 12:00:55.978
153, 64068.05, 50296.70, -15560.50, -20746.15, 6665.80, -3306.83, 7309.69, 1860.36, 0.054, 0.782, 0.604,0.0,0.0,0.0,0.0,0.0,0.0,0.0,0.0,0.0,0.0, 1557936055984, 12:00:55.984
154, 64518.18, 50903.32, -15776.40, -20945.15, 6410.70, -3549.70, 7046.48, 1600.81, 0.054, 0.782, 0.604,0.0,0.0,0.0,0.0,0.0,0.0,0.0,0.0,0.0,0.0, 1557936055993, 12:00:55.993
155, 64342.54, 50589.84, -15626.82, -20958.38, 6617.10, -3318.21, 7267.74, 1794.93, 0.054, 0.782, 0.604,0.0,0.0,0.0,0.0,0.0,0.0,0.0,0.0,0.0,0.0, 1557936055994, 12:00:55.994
156, 63811.57, 49845.75, -15329.70, -20721.18, 6972.83, -2990.64, 7622.53, 2132.33, 0.054, 0.782, 0.604,0.0,0.0,0.0,0.0,0.0,0.0,0.0,0.0,0.0,0.0, 1557936056000, 12:00:56.000
157, 63995.97, 50177.90, -15491.79, -20709.34, 6741.38, -3249.54, 7389.22, 1927.06, 0.038, 0.784, 0.610,0.0,0.0,0.0,0.0,0.0,0.0,0.0,0.0,0.0,0.0, 1557936056000, 12:00:56.000
158, 64505.79, 50872.25, -15719.83, -20892.33, 6462.49, -3507.86, 7107.54, 1660.91, 0.038, 0.784, 0.610,0.0,0.0,0.0,0.0,0.0,0.0,0.0,0.0,0.0,0.0, 1557936056007, 12:00:56.007
159, 64456.44, 50734.17, -15651.70, -20957.17, 6565.98, -3364.05, 7227.37, 1765.14, 0.038, 0.784, 0.610,0.0,0.0,0.0,0.0,0.0,0.0,0.0,0.0,0.0,0.0, 1557936056007, 12:00:56.007
160, 63901.02, 49935.56, -15334.06, -20746.42, 6969.12, -2976.27, 7625.21, 2152.47, 0.038, 0.784, 0.610,0.0,0.0,0.0,0.0,0.0,0.0,0.0,0.0,0.0,0.0, 1557936056014, 12:00:56.014
161, 63939.29, 50065.78, -15422.41, -20674.07, 6819.49, -3160.47, 7479.36, 2025.14, 0.038, 0.784, 0.610,0.0,0.0,0.0,0.0,0.0,0.0,0.0,0.0,0.0,0.0, 1557936056015, 12:00:56.015
162, 64448.70, 50782.25, -15687.53, -20868.57, 6491.71, -3484.79, 7141.85, 1692.94, 0.038, 0.784, 0.610,0.0,0.0,0.0,0.0,0.0,0.0,0.0,0.0,0.0,0.0, 1557936056022, 12:00:56.022
163, 64532.52, 50837.21, -15682.61, -20968.60, 6509.88, -3419.91, 7171.98, 1720.39, 0.038, 0.784, 0.610,0.0,0.0,0.0,0.0,0.0,0.0,0.0,0.0,0.0,0.0, 1557936056023, 12:00:56.023
164, 64000.66, 50052.80, -15361.88, -20789.18, 6924.01, -3006.22, 7582.52, 2117.89, 0.038, 0.784, 0.610,0.0,0.0,0.0,0.0,0.0,0.0,0.0,0.0,0.0,0.0, 1557936056030, 12:00:56.030
165, 63894.67, 49969.58, -15347.83, -20637.12, 6906.11, -3075.73, 7565.80, 2106.52, 0.038, 0.784, 0.610,0.0,0.0,0.0,0.0,0.0,0.0,0.0,0.0,0.0,0.0, 1557936056030, 12:00:56.030
166, 64388.00, 50680.30, -15637.66, -20821.30, 6546.56, -3432.78, 7197.51, 1750.59, 0.038, 0.784, 0.610,0.0,0.0,0.0,0.0,0.0,0.0,0.0,0.0,0.0,0.0, 1557936056037, 12:00:56.037
167, 64594.28, 50915.44, -15705.83, -20962.14, 6484.11, -3474.67, 7129.38, 1675.46, 0.036, 0.770, 0.612,0.0,0.0,0.0,0.0,0.0,0.0,0.0,0.0,0.0,0.0, 1557936056037, 12:00:56.037
168, 64118.73, 50198.26, -15408.64, -20828.61, 6858.03, -3073.79, 7512.73, 2040.67, 0.036, 0.770, 0.612,0.0,0.0,0.0,0.0,0.0,0.0,0.0,0.0,0.0,0.0, 1557936056044, 12:00:56.044
169, 63850.53, 49884.15, -15313.96, -20639.02, 6937.02, -3034.70, 7596.28, 2130.88, 0.036, 0.770, 0.612,0.0,0.0,0.0,0.0,0.0,0.0,0.0,0.0,0.0,0.0, 1557936056044, 12:00:56.044
170, 64309.57, 50562.62, -15583.72, -20782.29, 6592.45, -3385.71, 7236.11, 1790.22, 0.036, 0.770, 0.612,0.0,0.0,0.0,0.0,0.0,0.0,0.0,0.0,0.0,0.0, 1557936056052, 12:00:56.052
171, 64629.80, 50962.98, -15703.87, -20941.51, 6457.96, -3495.75, 7106.47, 1654.90, 0.036, 0.770, 0.612,0.0,0.0,0.0,0.0,0.0,0.0,0.0,0.0,0.0,0.0, 1557936056059, 12:00:56.059
172, 64230.66, 50345.76, -15465.55, -20872.44, 6777.36, -3145.34, 7434.03, 1967.38, 0.036, 0.770, 0.612,0.0,0.0,0.0,0.0,0.0,0.0,0.0,0.0,0.0,0.0, 1557936056060, 12:00:56.060
173, 63837.38, 49833.88, -15281.19, -20644.18, 6985.21, -2982.10, 7634.86, 2170.78, 0.036, 0.770, 0.612,0.0,0.0,0.0,0.0,0.0,0.0,0.0,0.0,0.0,0.0, 1557936056067, 12:00:56.067
174, 64203.06, 50409.73, -15562.16, -20769.89, 6619.16, -3358.95, 7258.57, 1814.72, 0.036, 0.770, 0.612,0.0,0.0,0.0,0.0,0.0,0.0,0.0,0.0,0.0,0.0, 1557936056067, 12:00:56.067
175, 64644.77, 50978.36, -15704.94, -20922.55, 6442.62, -3515.64, 7082.02, 1632.15, 0.036, 0.770, 0.612,0.0,0.0,0.0,0.0,0.0,0.0,0.0,0.0,0.0,0.0, 1557936056077, 12:00:56.077
176, 64361.71, 50515.59, -15509.34, -20898.48, 6715.54, -3229.76, 7355.29, 1877.17, 0.036, 0.770, 0.612,0.0,0.0,0.0,0.0,0.0,0.0,0.0,0.0,0.0,0.0, 1557936056078, 12:00:56.078
177, 63879.99, 49854.43, -15237.16, -20641.21, 7024.73, -2937.60, 7680.01, 2199.32, 0.046, 0.764, 0.608,0.0,0.0,0.0,0.0,0.0,0.0,0.0,0.0,0.0,0.0, 1557936056083, 12:00:56.083
178, 64177.60, 50336.62, -15436.14, -20671.29, 6751.37, -3238.45, 7403.10, 1939.64, 0.046, 0.764, 0.608,0.0,0.0,0.0,0.0,0.0,0.0,0.0,0.0,0.0,0.0, 1557936056084, 12:00:56.084
179, 64648.91, 50974.22, -15663.79, -20875.93, 6482.01, -3494.61, 7125.29, 1670.10, 0.046, 0.764, 0.608,0.0,0.0,0.0,0.0,0.0,0.0,0.0,0.0,0.0,0.0, 1557936056089, 12:00:56.089
180, 64456.35, 50658.17, -15571.48, -20937.19, 6634.13, -3318.03, 7272.56, 1802.53, 0.046, 0.764, 0.608,0.0,0.0,0.0,0.0,0.0,0.0,0.0,0.0,0.0,0.0, 1557936056089, 12:00:56.089
