%OpenBCI Raw EEG Data
%
%Sample Rate = 250.0 Hz
%First Column = SampleIndex
%Other Columns = EEG data in microvolts followed by Accel Data (in G) interleaved with Aux Data
0, 4215.74, 6637.71, -187500.02, 120469.33, 187500.00, 187500.00, 33466.13, 187500.00, 0.07, 0.42, 0.27
1, 4195.87, 6632.52, -187500.02, 116252.54, 187500.00, 187500.00, 33452.60, 187500.00, 0.00, 0.00, 0.00
2, 4227.16, 6640.99, -187500.02, 113555.06, 187500.00, 187500.00, 33617.09, 187500.00, 0.00, 0.00, 0.00
3, 4249.27, 6641.33, -187500.02, 112474.87, 187500.00, 187500.00, 33644.18, 187500.00, 0.00, 0.00, 0.00
4, 4224.84, 6630.44, -187500.02, 110160.95, 187500.00, 187500.00, 33472.16, 187500.00, 0.00, 0.00, 0.00
5, 4191.71, 6618.93, -187500.02, 106173.11, 187500.00, 187500.00, 33414.56, 187500.00, 0.00, 0.00, 0.00
6, 4224.64, 6641.91, -187500.02, 103289.22, 187500.00, 187500.00, 33573.59, 187500.00, 0.00, 0.00, 0.00
7, 4245.58, 6642.69, -187500.02, 102262.63, 187500.00, 187500.00, 33626.93, 187500.00, 0.14, 0.82, 0.54
8, 4243.37, 6652.91, -187500.02, 100402.87, 187500.00, 187500.00, 33508.46, 187500.00, 0.00, 0.00, 0.00
9, 4196.29, 6624.79, -187500.02, 96625.41, 187500.00, 187500.00, 33402.16, 187500.00, 0.00, 0.00, 0.00
10, 4196.52, 6617.28, -187500.02, 93530.07, 187500.00, 187500.00, 33513.55, 187500.00, 0.00, 0.00, 0.00
11, 4235.86, 6637.98, -187500.02, 92593.75, 187500.00, 187500.00, 33649.41, 187500.00, 0.00, 0.00, 0.00
12, 4238.56, 6643.36, -187500.02, 91458.55, 187500.00, 187500.00, 33568.23, 187500.00, 0.00, 0.00, 0.00
13, 4199.60, 6627.36, -187500.02, 88307.18, 187500.00, 187500.00, 33443.66, 187500.00, 0.00, 0.00, 0.00
14, 4201.61, 6626.58, -187500.02, 85254.63, 187500.00, 187500.00, 33537.83, 187500.00, 0.00, 0.00, 0.00
15, 4235.74, 6636.12, -187500.02, 84316.61, 187500.00, 187500.00, 33679.54, 187500.00, 0.00, 0.00, 0.00
16, 4242.34, 6643.12, -187500.02, 83608.44, 187500.00, 187500.00, 33603.79, 187500.00, 0.00, 0.00, 0.00
17, 4216.63, 6643.92, -187500.02, 80861.68, 187500.00, 187500.00, 33485.06, 187500.00, 0.15, 0.81, 0.53
18, 4195.78, 6624.99, -187500.02, 77667.34, 187500.00, 187500.00, 33535.57, 187500.00, 0.00, 0.00, 0.00
19, 4222.71, 6628.41, -187500.02, 76515.41, 187500.00, 187500.00, 33684.48, 187500.00, 0.00, 0.00, 0.00
20, 4237.42, 6631.85, -187500.02, 76151.74, 187500.00, 187500.00, 33636.31, 187500.00, 0.00, 0.00, 0.00
21, 4213.37, 6631.52, -187500.02, 73918.98, 187500.00, 187500.00, 33476.83, 187500.00, 0.00, 0.00, 0.00
22, 4194.22, 6626.20, -187500.02, 70706.03, 187500.00, 187500.00, 33495.79, 187500.00, 0.00, 0.00, 0.00
23, 4222.29, 6635.76, -187500.02, 69266.53, 187500.00, 187500.00, 33661.66, 187500.00, 0.00, 0.00, 0.00
24, 4257.76, 6650.14, -187500.02, 69040.70, 187500.00, 187500.00, 33679.07, 187500.00, 0.00, 0.00, 0.00
25, 4227.61, 6631.49, -187500.02, 67172.53, 187500.00, 187500.00, 33520.35, 187500.00, 0.00, 0.00, 0.00
26, 4208.86, 6627.52, -187500.02, 63829.11, 187500.00, 187500.00, 33493.80, 187500.00, 0.15, 0.82, 0.54
27, 4230.38, 6634.78, -187500.02, 61847.41, 187500.00, 187500.00, 33651.09, 187500.00, 0.00, 0.00, 0.00
28, 4251.12, 6633.19, -187500.02, 61389.31, 187500.00, 187500.00, 33689.55, 187500.00, 0.00, 0.00, 0.00
29, 4233.33, 6629.62, -187500.02, 59590.42, 187500.00, 187500.00, 33537.50, 187500.00, 0.00, 0.00, 0.00
30, 4203.38, 6624.59, -187500.02, 55920.29, 187500.00, 187500.00, 33484.01, 187500.00, 0.00, 0.00, 0.00
31, 4220.59, 6630.94, -187500.02, 53185.68, 187500.00, 187500.00, 33638.57, 187500.00, 0.00, 0.00, 0.00
32, 4251.59, 6637.10, -187500.02, 52296.13, 187500.00, 187500.00, 33724.40, 187500.00, 0.00, 0.00, 0.00
33, 4240.37, 6624.72, -187500.02, 50569.57, 187500.00, 187500.00, 33589.33, 187500.00, 0.00, 0.00, 0.00
34, 4188.40, 6592.78, -187500.02, 46721.11, 187500.00, 187500.00, 33460.88, 187500.00, 0.00, 0.00, 0.00
35, 4188.81, 6592.42, -187500.02, 43269.38, 187500.00, 187500.00, 33569.66, 187500.00, 0.00, 0.00, 0.00
36, 4229.82, 6614.48, -187500.02, 41843.78, 187500.00, 187500.00, 33693.93, 187500.00, 0.15, 0.82, 0.54
37, 4242.23, 6627.27, -187500.02, 40198.63, 187500.00, 187500.00, 33597.82, 187500.00, 0.00, 0.00, 0.00
38, 4202.93, 6609.43, -187500.02, 36476.05, 187500.00, 187500.00, 33454.28, 187500.00, 0.00, 0.00, 0.00
39, 4185.99, 6595.31, -187500.02, 32700.78, 187500.00, 187500.00, 33536.04, 187500.00, 0.00, 0.00, 0.00
40, 4217.71, 6591.89, -187500.02, 30988.57, 187500.00, 187500.00, 33675.09, 187500.00, 0.00, 0.00, 0.00
41, 4219.43, 6584.04, -187500.02, 29578.38, 187500.00, 187500.00, 33596.08, 187500.00, 0.00, 0.00, 0.00
42, 4190.37, 6588.71, -187500.02, 26081.40, 187500.00, 187500.00, 33443.64, 187500.00, 0.00, 0.00, 0.00
43, 4217.37, 6628.19, -187500.02, 21932.16, 187500.00, 187500.00, 33532.18, 187500.00, 0.00, 0.00, 0.00
44, 4238.54, 6627.27, -187500.02, 19702.73, 187500.00, 187500.00, 33696.62, 187500.00, 0.00, 0.00, 0.00
45, 4232.06, 6605.52, -187500.02, 18291.95, 187500.00, 187500.00, 33651.46, 187500.00, 0.00, 0.00, 0.00
46, 4195.78, 6595.53, -187500.02, 14985.15, 187500.00, 187500.00, 33493.82, 187500.00, 0.15, 0.83, 0.54
47, 4198.19, 6613.95, -187500.02, 10549.49, 187500.00, 187500.00, 33515.88, 187500.00, 0.00, 0.00, 0.00
48, 4206.13, 6593.65, -187500.02, 7789.69, 187500.00, 187500.00, 33661.86, 187500.00, 0.00, 0.00, 0.00
49, 4227.45, 6600.18, -187500.02, 6283.01, 187500.00, 187500.00, 33660.21, 187500.00, 0.00, 0.00, 0.00
50, 4201.68, 6589.20, -187500.02, 3187.27, 187500.00, 187500.00, 33500.52, 187500.00, 0.00, 0.00, 0.00
51, 4143.66, 6549.71, -187500.02, -1468.02, 187500.00, 187500.00, 33457.25, 187500.00, 0.00, 0.00, 0.00
52, 4192.09, 6590.72, -187500.02, -4790.74, 187500.00, 187500.00, 33634.97, 187500.00, 0.00, 0.00, 0.00
53, 4220.25, 6597.81, -187500.02, -6439.36, 187500.00, 187500.00, 33684.43, 187500.00, 0.00, 0.00, 0.00
54, 4168.73, 6552.77, -187500.02, -9239.00, 187500.00, 187500.00, 33524.11, 187500.00, 0.00, 0.00, 0.00
55, 4149.44, 6554.43, -187500.02, -13893.26, 187500.00, 187500.00, 33464.90, 187500.00, 0.00, 0.00, 0.00
56, 4170.86, 6564.68, -187500.02, -17662.19, 187500.00, 187500.00, 33588.37, 187500.00, 0.15, 0.83, 0.54
57, 4190.86, 6563.72, -187500.02, -19459.85, 187500.00, 187500.00, 33673.33, 187500.00, 0.00, 0.00, 0.00
58, 4182.50, 6576.46, -187500.02, -21848.36, 187500.00, 187500.00, 33559.31, 187500.00, 0.00, 0.00, 0.00
59, 4150.16, 6573.83, -187500.02, -26212.38, 187500.00, 187500.00, 33461.95, 187500.00, 0.00, 0.00, 0.00
60, 4137.93, 6552.99, -187500.02, -30133.53, 187500.00, 187500.00, 33559.91, 187500.00, 0.00, 0.00, 0.00
61, 4169.99, 6558.85, -187500.02, -31894.31, 187500.00, 187500.00, 33663.16, 187500.00, 0.00, 0.00, 0.00
62, 4165.63, 6558.67, -187500.02, -33673.86, 187500.00, 187500.00, 33571.34, 187500.00, 0.00, 0.00, 0.00
63, 4138.13, 6554.43, -187500.02, -37454.62, 187500.00, 187500.00, 33443.13, 187500.00, 0.00, 0.00, 0.00
64, 4147.32, 6565.53, -187500.02, -41308.30, 187500.00, 187500.00, 33536.06, 187500.00, 0.00, 0.00, 0.00
65, 4187.93, 6585.18, -187500.02, -42993.33, 187500.00, 187500.00, 33678.24, 187500.00, 0.00, 0.00, 0.00
66, 4204.79, 6593.32, -187500.02, -44148.43, 187500.00, 187500.00, 33628.55, 187500.00, 0.14, 0.83, 0.54
67, 4143.92, 6552.68, -187500.02, -47254.80, 187500.00, 187500.00, 33458.84, 187500.00, 0.00, 0.00, 0.00
68, 4127.92, 6551.79, -187500.02, -50999.35, 187500.00, 187500.00, 33512.89, 187500.00, 0.00, 0.00, 0.00
69, 4175.66, 6579.97, -187500.02, -52757.36, 187500.00, 187500.00, 33686.58, 187500.00, 0.00, 0.00, 0.00
70, 4174.21, 6562.34, -187500.02, -53493.89, 187500.00, 187500.00, 33654.44, 187500.00, 0.00, 0.00, 0.00
71, 4143.97, 6551.99, -187500.02, -55971.23, 187500.00, 187500.00, 33501.04, 187500.00, 0.00, 0.00, 0.00
72, 4128.23, 6547.47, -187500.02, -59583.13, 187500.00, 187500.00, 33499.83, 187500.00, 0.00, 0.00, 0.00
73, 4172.74, 6578.12, -187500.02, -61494.30, 187500.00, 187500.00, 33677.44, 187500.00, 0.00, 0.00, 0.00
74, 4203.42, 6592.65, -187500.02, -61956.15, 187500.00, 187500.00, 33712.09, 187500.00, 0.00, 0.00, 0.00
75, 4177.94, 6572.78, -187500.02, -63839.31, 187500.00, 187500.00, 33553.16, 187500.00, 0.00, 0.00, 0.00
76, 4141.78, 6548.19, -187500.02, -67281.19, 187500.00, 187500.00, 33499.48, 187500.00, 0.14, 0.83, 0.54
77, 4170.81, 6565.67, -187500.02, -69457.04, 187500.00, 187500.00, 33661.19, 187500.00, 0.00, 0.00, 0.00
78, 4197.10, 6569.42, -187500.02, -69896.74, 187500.00, 187500.00, 33720.09, 187500.00, 0.00, 0.00, 0.00
79, 4162.92, 6551.59, -187500.02, -71404.52, 187500.00, 187500.00, 33579.83, 187500.00, 0.00, 0.00, 0.00
80, 4130.89, 6546.80, -187500.02, -74846.78, 187500.00, 187500.00, 33502.56, 187500.00, 0.00, 0.00, 0.00
81, 4141.73, 6545.06, -187500.02, -77557.76, 187500.00, 187500.00, 33627.93, 187500.00, 0.00, 0.00, 0.00
82, 4160.24, 6544.17, -187500.02, -78351.13, 187500.00, 187500.00, 33714.07, 187500.00, 0.00, 0.00, 0.00
83, 4176.18, 6564.10, -187500.02, -79738.66, 187500.00, 187500.00, 33624.36, 187500.00, 0.00, 0.00, 0.00
84, 4129.06, 6543.34, -187500.02, -83238.14, 187500.00, 187500.00, 33510.54, 187500.00, 0.00, 0.00, 0.00
85, 4143.41, 6558.18, -187500.02, -86514.15, 187500.00, 187500.00, 33607.72, 187500.00, 0.00, 0.00, 0.00
86, 4184.16, 6571.12, -187500.02, -87744.05, 187500.00, 187500.00, 33727.30, 187500.00, 0.14, 0.82, 0.53
87, 4176.80, 6557.82, -187500.02, -89002.54, 187500.00, 187500.00, 33619.97, 187500.00, 0.00, 0.00, 0.00
88, 4133.93, 6540.14, -187500.02, -92381.70, 187500.00, 187500.00, 33476.88, 187500.00, 0.00, 0.00, 0.00
89, 4138.72, 6544.55, -187500.02, -95417.18, 187500.00, 187500.00, 33564.14, 187500.00, 0.00, 0.00, 0.00
90, 4174.93, 6552.57, -187500.02, -96268.06, 187500.00, 187500.00, 33694.79, 187500.00, 0.00, 0.00, 0.00
91, 4194.19, 6562.65, -187500.02, -97582.05, 187500.00, 187500.00, 33629.14, 187500.00, 0.00, 0.00, 0.00
92, 4153.38, 6545.98, -187500.02, -100991.77, 187500.00, 187500.00, 33471.02, 187500.00, 0.00, 0.00, 0.00
93, 4119.74, 6524.81, -187500.02, -105273.74, 187500.00, 187500.00, 33485.84, 187500.00, 0.00, 0.00, 0.00
94, 4174.93, 6565.11, -187500.02, -107768.71, 187500.00, 187500.00, 33653.52, 187500.00, 0.00, 0.00, 0.00
95, 4203.76, 6584.00, -187500.02, -109309.73, 187500.00, 187500.00, 33660.27, 187500.00, 0.00, 0.00, 0.00
96, 4151.30, 6547.61, -187500.02, -112686.27, 187500.00, 187500.00, 33490.78, 187500.00, 0.13, 0.82, 0.53
97, 4110.69, 6514.62, -187500.02, -117422.63, 187500.00, 187500.00, 33447.39, 187500.00, 0.00, 0.00, 0.00
98, 4144.57, 6524.03, -187500.02, -120636.20, 187500.00, 187500.00, 33593.51, 187500.00, 0.00, 0.00, 0.00
99, 4202.49, 6560.80, -187500.02, -122409.26, 187500.00, 187500.00, 33632.78, 187500.00, 0.00, 0.00, 0.00
100, 4172.27, 6547.34, -187500.02, -125597.48, 187500.00, 187500.00, 33468.34, 187500.00, 0.00, 0.00, 0.00
101, 4138.34, 6533.21, -187500.02, -130452.20, 187500.00, 187500.00, 33411.43, 187500.00, 0.00, 0.00, 0.00
102, 4158.50, 6530.49, -187500.02, -134144.86, 187500.00, 187500.00, 33542.55, 187500.00, 0.00, 0.00, 0.00
103, 4181.92, 6532.88, -187500.02, -135983.94, 187500.00, 187500.00, 33596.91, 187500.00, 0.00, 0.00, 0.00
104, 4180.25, 6548.03, -187500.02, -138641.45, 187500.00, 187500.00, 33481.32, 187500.00, 0.00, 0.00, 0.00
105, 4131.07, 6525.39, -187500.02, -143054.88, 187500.00, 187500.00, 33401.55, 187500.00, 0.14, 0.83, 0.53
106, 4146.11, 6534.35, -187500.02, -146574.39, 187500.00, 187500.00, 33517.98, 187500.00, 0.00, 0.00, 0.00
107, 4191.60, 6554.20, -187500.02, -147894.14, 187500.00, 187500.00, 33626.81, 187500.00, 0.00, 0.00, 0.00
108, 4182.86, 6545.42, -187500.02, -149490.39, 187500.00, 187500.00, 33516.30, 187500.00, 0.00, 0.00, 0.00
109, 4143.66, 6524.79, -187500.02, -153032.48, 187500.00, 187500.00, 33396.97, 187500.00, 0.00, 0.00, 0.00
110, 4157.51, 6537.97, -187500.02, -156298.13, 187500.00, 187500.00, 33505.46, 187500.00, 0.00, 0.00, 0.00
111, 4187.87, 6544.01, -187500.02, -157346.38, 187500.00, 187500.00, 33630.46, 187500.00, 0.00, 0.00, 0.00
112, 4207.27, 6564.73, -187500.02, -158140.08, 187500.00, 187500.00, 33565.64, 187500.00, 0.00, 0.00, 0.00
113, 4179.31, 6561.18, -187500.02, -160845.92, 187500.00, 187500.00, 33433.92, 187500.00, 0.00, 0.00, 0.00
114, 4146.87, 6532.12, -187500.02, -163797.58, 187500.00, 187500.00, 33474.66, 187500.00, 0.00, 0.00, 0.00
115, 4192.45, 6550.92, -187500.02, -164583.89, 187500.00, 187500.00, 33625.32, 187500.00, 0.14, 0.83, 0.54
116, 4221.46, 6566.67, -187500.02, -164558.95, 187500.00, 187500.00, 33597.33, 187500.00, 0.00, 0.00, 0.00
117, 4182.44, 6553.44, -187500.02, -166340.92, 187500.00, 187500.00, 33457.99, 187500.00, 0.00, 0.00, 0.00
118, 4148.77, 6529.15, -187500.02, -168894.53, 187500.00, 187500.00, 33468.74, 187500.00, 0.00, 0.00, 0.00
119, 4173.81, 6533.35, -187500.02, -169501.75, 187500.00, 187500.00, 33609.33, 187500.00, 0.00, 0.00, 0.00
120, 4191.65, 6535.14, -187500.02, -168874.83, 187500.00, 187500.00, 33600.17, 187500.00, 0.00, 0.00, 0.00
121, 4189.72, 6549.73, -187500.02, -169855.30, 187500.00, 187500.00, 33463.27, 187500.00, 0.00, 0.00, 0.00
122, 4172.24, 6551.63, -187500.02, -172122.00, 187500.00, 187500.00, 33456.56, 187500.00, 0.00, 0.00, 0.00
123, 4197.75, 6565.04, -187500.02, -172805.55, 187500.00, 187500.00, 33605.06, 187500.00, 0.00, 0.00, 0.00
124, 4223.74, 6575.61, -187500.02, -171880.69, 187500.00, 187500.00, 33645.81, 187500.00, 0.00, 0.00, 0.00
125, 4192.11, 6552.75, -187500.02, -172224.09, 187500.00, 187500.00, 33479.63, 187500.00, 0.14, 0.83, 0.53
126, 4160.40, 6541.10, -187500.02, -174245.81, 187500.00, 187500.00, 33419.84, 187500.00, 0.00, 0.00, 0.00
127, 4197.72, 6575.01, -187500.02, -175121.59, 187500.00, 187500.00, 33575.80, 187500.00, 0.00, 0.00, 0.00
128, 4223.79, 6574.63, -187500.02, -174072.30, 187500.00, 187500.00, 33649.14, 187500.00, 0.00, 0.00, 0.00
129, 4195.22, 6552.17, -187500.02, -173806.17, 187500.00, 187500.00, 33507.19, 187500.00, 0.00, 0.00, 0.00
130, 4157.94, 6537.35, -187500.02, -175492.56, 187500.00, 187500.00, 33413.53, 187500.00, 0.00, 0.00, 0.00
131, 4161.43, 6535.36, -187500.02, -176664.73, 187500.00, 187500.00, 33527.77, 187500.00, 0.00, 0.00, 0.00
132, 4217.15, 6567.70, -187500.02, -175738.42, 187500.00, 187500.00, 33648.98, 187500.00, 0.00, 0.00, 0.00
133, 4219.56, 6575.46, -187500.02, -174868.67, 187500.00, 187500.00, 33554.57, 187500.00, 0.00, 0.00, 0.00
134, 4175.04, 6555.81, -187500.02, -175977.14, 187500.00, 187500.00, 33431.77, 187500.00, 0.00, 0.00, 0.00
135, 4198.17, 6581.90, -187500.02, -176955.53, 187500.00, 187500.00, 33522.14, 187500.00, 0.13, 0.82, 0.54
136, 4224.05, 6586.19, -187500.02, -175779.34, 187500.00, 187500.00, 33665.79, 187500.00, 0.00, 0.00, 0.00
137, 4220.43, 6573.09, -187500.02, -174336.69, 187500.00, 187500.00, 33593.87, 187500.00, 0.00, 0.00, 0.00
138, 4181.07, 6553.73, -187500.02, -174938.53, 187500.00, 187500.00, 33437.11, 187500.00, 0.00, 0.00, 0.00
139, 4178.61, 6553.58, -187500.02, -176026.86, 187500.00, 187500.00, 33486.69, 187500.00, 0.00, 0.00, 0.00
140, 4218.71, 6566.56, -187500.02, -175091.56, 187500.00, 187500.00, 33632.87, 187500.00, 0.00, 0.00, 0.00
141, 4248.60, 6582.72, -187500.02, -173374.47, 187500.00, 187500.00, 33609.20, 187500.00, 0.00, 0.00, 0.00
142, 4230.72, 6583.44, -187500.02, -173539.56, 187500.00, 187500.00, 33460.92, 187500.00, 0.00, 0.00, 0.00
143, 4189.25, 6550.74, -187500.02, -174693.31, 187500.00, 187500.00, 33441.36, 187500.00, 0.00, 0.00, 0.00
144, 4226.07, 6568.98, -187500.02, -174067.72, 187500.00, 187500.00, 33598.45, 187500.00, 0.00, 0.00, 0.00
145, 4274.10, 6610.48, -187500.02, -172200.83, 187500.00, 187500.00, 33621.22, 187500.00, 0.14, 0.83, 0.54
146, 4236.13, 6590.70, -187500.02, -171946.36, 187500.00, 187500.00, 33453.25, 187500.00, 0.00, 0.00, 0.00
147, 4207.85, 6573.96, -187500.02, -173153.50, 187500.00, 187500.00, 33419.23, 187500.00, 0.00, 0.00, 0.00
148, 4213.59, 6566.81, -187500.02, -172957.06, 187500.00, 187500.00, 33557.21, 187500.00, 0.00, 0.00, 0.00
149, 4246.79, 6584.18, -187500.02, -171140.53, 187500.00, 187500.00, 33606.88, 187500.00, 0.00, 0.00, 0.00
150, 4234.58, 6579.77, -187500.02, -170542.42, 187500.00, 187500.00, 33459.64, 187500.00, 0.00, 0.00, 0.00
151, 4204.07, 6572.06, -187500.02, -171760.55, 187500.00, 187500.00, 33382.60, 187500.00, 0.00, 0.00, 0.00
152, 4217.04, 6578.21, -187500.02, -172042.16, 187500.00, 187500.00, 33512.77, 187500.00, 0.00, 0.00, 0.00
153, 4253.89, 6594.57, -187500.02, -170441.98, 187500.00, 187500.00, 33598.71, 187500.00, 0.00, 0.00, 0.00
154, 4236.42, 6579.84, -187500.02, -169601.59, 187500.00, 187500.00, 33469.14, 187500.00, 0.00, 0.00, 0.00
155, 4205.41, 6568.26, -187500.02, -170801.78, 187500.00, 187500.00, 33363.17, 187500.00, 0.15, 0.82, 0.54
156, 4218.69, 6578.52, -187500.02, -171549.03, 187500.00, 187500.00, 33472.21, 187500.00, 0.00, 0.00, 0.00
157, 4251.93, 6586.79, -187500.02, -170239.84, 187500.00, 187500.00, 33577.10, 187500.00, 0.00, 0.00, 0.00
158, 4250.14, 6584.60, -187500.02, -169140.31, 187500.00, 187500.00, 33484.16, 187500.00, 0.00, 0.00, 0.00
159, 4214.29, 6570.16, -187500.02, -170151.42, 187500.00, 187500.00, 33362.86, 187500.00, 0.00, 0.00, 0.00
160, 4207.94, 6563.23, -187500.02, -171236.59, 187500.00, 187500.00, 33437.31, 187500.00, 0.00, 0.00, 0.00
161, 4246.90, 6580.38, -187500.02, -170229.19, 187500.00, 187500.00, 33576.77, 187500.00, 0.00, 0.00, 0.00
162, 4265.74, 6597.50, -187500.02, -168859.33, 187500.00, 187500.00, 33531.55, 187500.00, 0.00, 0.00, 0.00
163, 4212.88, 6568.53, -187500.02, -169508.09, 187500.00, 187500.00, 33375.85, 187500.00, 0.00, 0.00, 0.00
164, 4199.09, 6561.65, -187500.02, -170734.05, 187500.00, 187500.00, 33421.24, 187500.00, 0.00, 0.00, 0.00
165, 4239.48, 6581.67, -187500.02, -169964.17, 187500.00, 187500.00, 33576.57, 187500.00, 0.15, 0.82, 0.54
166, 4252.60, 6584.91, -187500.02, -168312.55, 187500.00, 187500.00, 33549.14, 187500.00, 0.00, 0.00, 0.00
167, 4229.75, 6580.02, -187500.02, -168519.94, 187500.00, 187500.00, 33409.60, 187500.00, 0.00, 0.00, 0.00
168, 4200.45, 6560.53, -187500.02, -169853.31, 187500.00, 187500.00, 33410.80, 187500.00, 0.00, 0.00, 0.00
169, 4237.38, 6585.09, -187500.02, -169474.70, 187500.00, 187500.00, 33561.79, 187500.00, 0.00, 0.00, 0.00
170, 4271.26, 6604.92, -187500.02, -167746.17, 187500.00, 187500.00, 33579.05, 187500.00, 0.00, 0.00, 0.00
171, 4226.07, 6572.42, -187500.02, -167550.59, 187500.00, 187500.00, 33413.53, 187500.00, 0.00, 0.00, 0.00
172, 4199.49, 6560.64, -187500.02, -168881.59, 187500.00, 187500.00, 33383.63, 187500.00, 0.00, 0.00, 0.00
173, 4216.59, 6563.34, -187500.02, -168844.45, 187500.00, 187500.00, 33529.76, 187500.00, 0.00, 0.00, 0.00
174, 4253.18, 6579.71, -187500.02, -167106.39, 187500.00, 187500.00, 33582.58, 187500.00, 0.00, 0.00, 0.00
175, 4244.71, 6583.35, -187500.02, -166537.45, 187500.00, 187500.00, 33445.68, 187500.00, 0.14, 0.82, 0.54
176, 4206.98, 6566.41, -187500.02, -167890.11, 187500.00, 187500.00, 33384.00, 187500.00, 0.00, 0.00, 0.00
177, 4216.03, 6567.79, -187500.02, -168417.39, 187500.00, 187500.00, 33513.00, 187500.00, 0.00, 0.00, 0.00
178, 4248.06, 6578.79, -187500.02, -166994.73, 187500.00, 187500.00, 33606.59, 187500.00, 0.00, 0.00, 0.00
179, 4247.19, 6586.14, -187500.02, -166158.73, 187500.00, 187500.00, 33501.44, 187500.00, 0.00, 0.00, 0.00
180, 4217.42, 6575.97, -187500.02, -167306.64, 187500.00, 187500.00, 33406.67, 187500.00, 0.00, 0.00, 0.00
181, 4215.11, 6570.54, -187500.02, -168019.27, 187500.00, 187500.00, 33505.22, 187500.00, 0.00, 0.00, 0.00
182, 4239.48, 6571.66, -187500.02, -166599.53, 187500.00, 187500.00, 33616.48, 187500.00, 0.00, 0.00, 0.00
183, 4248.37, 6580.04, -187500.02, -165266.58, 187500.00, 187500.00, 33541.38, 187500.00, 0.00, 0.00, 0.00
184, 4211.83, 6565.56, -187500.02, -166089.28, 187500.00, 187500.00, 33411.79, 187500.00, 0.00, 0.00, 0.00
185, 4206.40, 6562.65, -187500.02, -167181.61, 187500.00, 187500.00, 33481.62, 187500.00, 0.14, 0.82, 0.54
186, 4242.12, 6579.12, -187500.02, -166280.70, 187500.00, 187500.00, 33619.66, 187500.00, 0.00, 0.00, 0.00
187, 4254.68, 6581.54, -187500.02, -164991.59, 187500.00, 187500.00, 33561.84, 187500.00, 0.00, 0.00, 0.00
188, 4222.74, 6568.80, -187500.02, -165778.28, 187500.00, 187500.00, 33420.30, 187500.00, 0.00, 0.00, 0.00
189, 4189.81, 6546.13, -187500.02, -167338.34, 187500.00, 187500.00, 33442.77, 187500.00, 0.00, 0.00, 0.00
190, 4239.03, 6578.01, -187500.02, -167019.73, 187500.00, 187500.00, 33594.85, 187500.00, 0.00, 0.00, 0.00
191, 4264.20, 6591.77, -187500.02, -165752.31, 187500.00, 187500.00, 33572.57, 187500.00, 0.00, 0.00, 0.00
192, 4218.33, 6565.78, -187500.02, -166305.25, 187500.00, 187500.00, 33410.18, 187500.00, 0.00, 0.00, 0.00
193, 4185.27, 6546.16, -187500.02, -168099.11, 187500.00, 187500.00, 33396.59, 187500.00, 0.00, 0.00, 0.00
194, 4217.13, 6560.04, -187500.02, -168282.61, 187500.00, 187500.00, 33553.84, 187500.00, 0.14, 0.83, 0.54
195, 4243.81, 6575.19, -187500.02, -167060.27, 187500.00, 187500.00, 33563.73, 187500.00, 0.00, 0.00, 0.00
196, 4215.58, 6564.84, -187500.02, -167293.61, 187500.00, 187500.00, 33410.29, 187500.00, 0.00, 0.00, 0.00
197, 4187.22, 6551.61, -187500.02, -169132.34, 187500.00, 187500.00, 33364.83, 187500.00, 0.00, 0.00, 0.00
198, 4205.21, 6557.87, -187500.02, -169709.59, 187500.00, 187500.00, 33502.56, 187500.00, 0.00, 0.00, 0.00
199, 4238.25, 6575.35, -187500.02, -168505.08, 187500.00, 187500.00, 33562.51, 187500.00, 0.00, 0.00, 0.00
200, 4215.76, 6564.75, -187500.02, -168321.69, 187500.00, 187500.00, 33423.88, 187500.00, 0.00, 0.00, 0.00
201, 4186.39, 6554.18, -187500.02, -170046.64, 187500.00, 187500.00, 33344.36, 187500.00, 0.00, 0.00, 0.00
202, 4195.71, 6554.60, -187500.02, -170995.00, 187500.00, 187500.00, 33467.58, 187500.00, 0.00, 0.00, 0.00
203, 4232.82, 6572.73, -187500.02, -169941.73, 187500.00, 187500.00, 33564.56, 187500.00, 0.00, 0.00, 0.00
204, 4219.09, 6567.46, -187500.02, -169410.28, 187500.00, 187500.00, 33455.06, 187500.00, 0.14, 0.83, 0.54
205, 4182.03, 6550.20, -187500.02, -170975.81, 187500.00, 187500.00, 33346.23, 187500.00, 0.00, 0.00, 0.00
206, 4185.79, 6549.80, -187500.02, -172332.30, 187500.00, 187500.00, 33438.68, 187500.00, 0.00, 0.00, 0.00
207, 4227.85, 6569.65, -187500.02, -171658.78, 187500.00, 187500.00, 33552.43, 187500.00, 0.00, 0.00, 0.00
208, 4227.32, 6570.41, -187500.02, -171049.98, 187500.00, 187500.00, 33458.62, 187500.00, 0.00, 0.00, 0.00
209, 4181.68, 6551.88, -187500.02, -172629.94, 187500.00, 187500.00, 33314.87, 187500.00, 0.00, 0.00, 0.00
210, 4176.98, 6548.97, -187500.02, -174588.27, 187500.00, 187500.00, 33377.37, 187500.00, 0.00, 0.00, 0.00
211, 4219.05, 6571.35, -187500.02, -174547.06, 187500.00, 187500.00, 33520.57, 187500.00, 0.00, 0.00, 0.00
212, 4234.16, 6579.59, -187500.02, -173950.03, 187500.00, 187500.00, 33473.01, 187500.00, 0.00, 0.00, 0.00
213, 4193.10, 6556.08, -187500.02, -175305.86, 187500.00, 187500.00, 33335.68, 187500.00, 0.00, 0.00, 0.00
214, 4166.99, 6540.57, -187500.02, -177452.61, 187500.00, 187500.00, 33364.98, 187500.00, 0.15, 0.83, 0.53
215, 4196.94, 6547.03, -187500.02, -177707.63, 187500.00, 187500.00, 33514.00, 187500.00, 0.00, 0.00, 0.00
216, 4232.28, 6571.55, -187500.02, -176858.31, 187500.00, 187500.00, 33525.07, 187500.00, 0.00, 0.00, 0.00
217, 4203.22, 6564.71, -187500.02, -177693.70, 187500.00, 187500.00, 33368.00, 187500.00, 0.00, 0.00, 0.00
218, 4176.09, 6553.06, -187500.02, -179780.03, 187500.00, 187500.00, 33352.18, 187500.00, 0.00, 0.00, 0.00
219, 4199.09, 6556.93, -187500.02, -180272.89, 187500.00, 187500.00, 33498.85, 187500.00, 0.00, 0.00, 0.00
220, 4225.69, 6567.90, -187500.02, -179236.73, 187500.00, 187500.00, 33522.32, 187500.00, 0.00, 0.00, 0.00
221, 4204.09, 6557.85, -187500.02, -179601.42, 187500.00, 187500.00, 33374.93, 187500.00, 0.00, 0.00, 0.00
222, 4177.05, 6545.10, -187500.02, -182047.00, 187500.00, 187500.00, 33331.88, 187500.00, 0.00, 0.00, 0.00
223, 4197.55, 6556.03, -187500.02, -183083.56, 187500.00, 187500.00, 33464.47, 187500.00, 0.00, 0.00, 0.00
224, 4238.45, 6579.12, -187500.02, -182073.06, 187500.00, 187500.00, 33528.69, 187500.00, 0.14, 0.83, 0.53
225, 4221.48, 6572.28, -187500.02, -181967.36, 187500.00, 187500.00, 33394.80, 187500.00, 0.00, 0.00, 0.00
226, 4183.87, 6555.07, -187500.02, -183826.06, 187500.00, 187500.00, 33312.03, 187500.00, 0.00, 0.00, 0.00
227, 4194.82, 6556.91, -187500.02, -185071.14, 187500.00, 187500.00, 33421.22, 187500.00, 0.00, 0.00, 0.00
228, 4229.49, 6569.24, -187500.02, -184231.66, 187500.00, 187500.00, 33513.29, 187500.00, 0.00, 0.00, 0.00
229, 4224.10, 6566.58, -187500.02, -183786.41, 187500.00, 187500.00, 33415.43, 187500.00, 0.00, 0.00, 0.00
230, 4178.44, 6545.35, -187500.02, -185399.48, 187500.00, 187500.00, 33292.61, 187500.00, 0.00, 0.00, 0.00
231, 4190.84, 6557.13, -187500.02, -186654.27, 187500.00, 187500.00, 33391.96, 187500.00, 0.00, 0.00, 0.00
232, 4231.48, 6574.70, -187500.02, -186410.33, 187500.00, 187500.00, 33513.07, 187500.00, 0.00, 0.00, 0.00
233, 4228.68, 6573.22, -187500.02, -185793.75, 187500.00, 187500.00, 33426.74, 187500.00, 0.00, 0.00, 0.00
234, 4185.72, 6554.96, -187500.02, -186452.13, 187500.00, 187500.00, 33285.37, 187500.00, 0.14, 0.83, 0.53
235, 4173.36, 6544.48, -187500.02, -186777.45, 187500.00, 187500.00, 33336.22, 187500.00, 0.00, 0.00, 0.00
236, 4211.34, 6557.87, -187500.02, -186782.64, 187500.00, 187500.00, 33469.52, 187500.00, 0.00, 0.00, 0.00
237, 4226.02, 6565.00, -187500.02, -186781.77, 187500.00, 187500.00, 33433.49, 187500.00, 0.00, 0.00, 0.00
238, 4189.34, 6551.41, -187500.02, -186784.77, 187500.00, 187500.00, 33298.46, 187500.00, 0.00, 0.00, 0.00
239, 4170.75, 6543.29, -187500.02, -186783.23, 187500.00, 187500.00, 33321.89, 187500.00, 0.00, 0.00, 0.00
240, 4196.03, 6554.00, -187500.02, -186783.78, 187500.00, 187500.00, 33462.66, 187500.00, 0.00, 0.00, 0.00
241, 4234.67, 6579.84, -187500.02, -186785.63, 187500.00, 187500.00, 33471.25, 187500.00, 0.00, 0.00, 0.00
242, 4209.77, 6568.28, -187500.02, -186787.05, 187500.00, 187500.00, 33325.06, 187500.00, 0.00, 0.00, 0.00
243, 4179.08, 6549.82, -187500.02, -186786.19, 187500.00, 187500.00, 33300.28, 187500.00, 0.00, 0.00, 0.00
244, 4208.23, 6561.31, -187500.02, -186785.47, 187500.00, 187500.00, 33444.63, 187500.00, 0.14, 0.83, 0.53
245, 4230.02, 6566.76, -187500.02, -186789.59, 187500.00, 187500.00, 33466.66, 187500.00, 0.00, 0.00, 0.00
246, 4209.68, 6561.27, -187500.02, -186789.98, 187500.00, 187500.00, 33323.59, 187500.00, 0.00, 0.00, 0.00
247, 4182.79, 6551.23, -187500.02, -186784.67, 187500.00, 187500.00, 33271.91, 187500.00, 0.00, 0.00, 0.00
248, 4197.52, 6555.39, -187500.02, -186784.48, 187500.00, 187500.00, 33394.18, 187500.00, 0.00, 0.00, 0.00
249, 4223.12, 6563.17, -187500.02, -186786.41, 187500.00, 187500.00, 33456.63, 187500.00, 0.00, 0.00, 0.00
250, 4221.66, 6563.99, -187500.02, -186788.53, 187500.00, 187500.00, 33356.94, 187500.00, 0.00, 0.00, 0.00
251, 4172.87, 6532.43, -187500.02, -186787.69, 187500.00, 187500.00, 33252.87, 187500.00, 0.00, 0.00, 0.00
252, 4175.55, 6537.68, -187500.02, -186786.28, 187500.00, 187500.00, 33346.14, 187500.00, 0.00, 0.00, 0.00
253, 4220.59, 6562.27, -187500.02, -186787.06, 187500.00, 187500.00, 33458.37, 187500.00, 0.00, 0.00, 0.00
254, 4227.34, 6568.80, -187500.02, -186787.31, 187500.00, 187500.00, 33367.38, 187500.00, 0.15, 0.83, 0.53
255, 4178.73, 6545.95, -187500.02, -186785.78, 187500.00, 187500.00, 33251.41, 187500.00, 0.00, 0.00, 0.00
0, 4173.79, 6542.85, -187500.02, -186784.41, 187500.00, 187500.00, 33343.39, 187500.00, 0.00, 0.00, 0.00
1, 4213.64, 6558.52, -187500.02, -186787.78, 187500.00, 187500.00, 33473.01, 187500.00, 0.00, 0.00, 0.00
2, 4220.52, 6564.48, -187500.02, -186786.73, 187500.00, 187500.00, 33405.51, 187500.00, 0.00, 0.00, 0.00
3, 4178.70, 6547.99, -187500.02, -186783.17, 187500.00, 187500.00, 33255.10, 187500.00, 0.00, 0.00, 0.00
4, 4164.38, 6544.28, -187500.02, -186779.75, 187500.00, 187500.00, 33284.85, 187500.00, 0.00, 0.00, 0.00
5, 4196.61, 6549.98, -187500.02, -186779.91, 187500.00, 187500.00, 33419.30, 187500.00, 0.00, 0.00, 0.00
6, 4221.89, 6569.92, -187500.02, -186783.48, 187500.00, 187500.00, 33393.44, 187500.00, 0.00, 0.00, 0.00
7, 4185.50, 6555.23, -187500.02, -186783.95, 187500.00, 187500.00, 33236.75, 187500.00, 0.00, 0.00, 0.00
8, 4158.94, 6539.09, -187500.02, -186780.94, 187500.00, 187500.00, 33239.86, 187500.00, 0.15, 0.83, 0.53
9, 4196.70, 6557.22, -187500.02, -186780.80, 187500.00, 187500.00, 33399.18, 187500.00, 0.00, 0.00, 0.00
10, 4216.30, 6560.88, -187500.02, -186784.22, 187500.00, 187500.00, 33398.13, 187500.00, 0.00, 0.00, 0.00
11, 4203.09, 6564.77, -187500.02, -186784.00, 187500.00, 187500.00, 33264.49, 187500.00, 0.00, 0.00, 0.00
12, 4169.72, 6546.36, -187500.02, -186783.17, 187500.00, 187500.00, 33251.26, 187500.00, 0.00, 0.00, 0.00
13, 4194.08, 6552.06, -187500.02, -186783.28, 187500.00, 187500.00, 33398.89, 187500.00, 0.00, 0.00, 0.00
14, 4223.79, 6564.53, -187500.02, -186787.67, 187500.00, 187500.00, 33446.16, 187500.00, 0.00, 0.00, 0.00
15, 4208.30, 6567.21, -187500.02, -186789.08, 187500.00, 187500.00, 33321.67, 187500.00, 0.00, 0.00, 0.00
16, 4170.75, 6549.49, -187500.02, -186786.28, 187500.00, 187500.00, 33260.78, 187500.00, 0.00, 0.00, 0.00
17, 4177.34, 6543.05, -187500.02, -186787.31, 187500.00, 187500.00, 33377.84, 187500.00, 0.14, 0.84, 0.54
18, 4226.25, 6569.67, -187500.02, -186790.64, 187500.00, 187500.00, 33469.01, 187500.00, 0.00, 0.00, 0.00
19, 4228.97, 6578.05, -187500.02, -186792.53, 187500.00, 187500.00, 33354.73, 187500.00, 0.00, 0.00, 0.00
20, 4190.15, 6558.74, -187500.02, -186789.67, 187500.00, 187500.00, 33251.50, 187500.00, 0.00, 0.00, 0.00
21, 4192.16, 6555.86, -187500.02, -186791.06, 187500.00, 187500.00, 33357.54, 187500.00, 0.00, 0.00, 0.00
22, 4224.97, 6567.39, -187500.02, -186795.06, 187500.00, 187500.00, 33471.87, 187500.00, 0.00, 0.00, 0.00
23, 4230.72, 6575.75, -187500.02, -186798.28, 187500.00, 187500.00, 33379.82, 187500.00, 0.00, 0.00, 0.00
24, 4186.17, 6554.31, -187500.02, -186797.14, 187500.00, 187500.00, 33256.51, 187500.00, 0.00, 0.00, 0.00
25, 4176.51, 6542.22, -187500.02, -186795.56, 187500.00, 187500.00, 33330.99, 187500.00, 0.00, 0.00, 0.00
26, 4227.61, 6567.70, -187500.02, -186798.81, 187500.00, 187500.00, 33473.90, 187500.00, 0.00, 0.00, 0.00
27, 4227.59, 6559.70, -187500.02, -186801.77, 187500.00, 187500.00, 33409.22, 187500.00, 0.14, 0.83, 0.54
28, 4196.63, 6554.27, -187500.02, -186801.14, 187500.00, 187500.00, 33287.89, 187500.00, 0.00, 0.00, 0.00
29, 4194.10, 6559.48, -187500.02, -186798.58, 187500.00, 187500.00, 33355.20, 187500.00, 0.00, 0.00, 0.00
30, 4221.66, 6566.09, -187500.02, -186801.72, 187500.00, 187500.00, 33491.72, 187500.00, 0.00, 0.00, 0.00
31, 4244.53, 6580.04, -187500.02, -186806.53, 187500.00, 187500.00, 33477.61, 187500.00, 0.00, 0.00, 0.00
32, 4219.50, 6572.22, -187500.02, -186807.02, 187500.00, 187500.00, 33346.66, 187500.00, 0.00, 0.00, 0.00
33, 4193.32, 6555.70, -187500.02, -186803.84, 187500.00, 187500.00, 33339.93, 187500.00, 0.00, 0.00, 0.00
34, 4216.90, 6560.57, -187500.02, -186804.16, 187500.00, 187500.00, 33474.44, 187500.00, 0.00, 0.00, 0.00
35, 4248.57, 6577.13, -187500.02, -186806.47, 187500.00, 187500.00, 33486.49, 187500.00, 0.00, 0.00, 0.00
36, 4222.47, 6565.02, -187500.02, -186807.25, 187500.00, 187500.00, 33342.79, 187500.00, 0.00, 0.00, 0.00
37, 4185.16, 6535.63, -187500.02, -186807.47, 187500.00, 187500.00, 33290.80, 187500.00, 0.15, 0.82, 0.54
38, 4214.04, 6543.05, -187500.02, -186808.75, 187500.00, 187500.00, 33416.75, 187500.00, 0.00, 0.00, 0.00
39, 4253.51, 6577.63, -187500.02, -186810.28, 187500.00, 187500.00, 33466.93, 187500.00, 0.00, 0.00, 0.00
40, 4228.41, 6572.57, -187500.02, -186809.03, 187500.00, 187500.00, 33352.47, 187500.00, 0.00, 0.00, 0.00
41, 4209.37, 6568.31, -187500.02, -186809.48, 187500.00, 187500.00, 33309.53, 187500.00, 0.00, 0.00, 0.00
42, 4229.04, 6574.09, -187500.02, -186808.34, 187500.00, 187500.00, 33418.34, 187500.00, 0.00, 0.00, 0.00
43, 4265.72, 6589.81, -187500.02, -186812.25, 187500.00, 187500.00, 33496.52, 187500.00, 0.00, 0.00, 0.00
44, 4257.92, 6589.05, -187500.02, -186813.58, 187500.00, 187500.00, 33384.18, 187500.00, 0.00, 0.00, 0.00
45, 4216.25, 6568.55, -187500.02, -186814.48, 187500.00, 187500.00, 33281.21, 187500.00, 0.00, 0.00, 0.00
46, 4216.70, 6562.54, -187500.02, -186814.89, 187500.00, 187500.00, 33358.77, 187500.00, 0.00, 0.00, 0.00
47, 4267.51, 6587.77, -187500.02, -186815.52, 187500.00, 187500.00, 33468.88, 187500.00, 0.15, 0.83, 0.53
48, 4276.76, 6595.80, -187500.02, -186813.64, 187500.00, 187500.00, 33391.70, 187500.00, 0.00, 0.00, 0.00
49, 4234.90, 6577.25, -187500.02, -186814.56, 187500.00, 187500.00, 33262.70, 187500.00, 0.00, 0.00, 0.00
50, 4228.68, 6573.87, -187500.02, -186813.77, 187500.00, 187500.00, 33332.80, 187500.00, 0.00, 0.00, 0.00
51, 4262.95, 6587.24, -187500.02, -186791.88, 187500.00, 187500.00, 33472.12, 187500.00, 0.00, 0.00, 0.00
52, 4267.10, 6588.04, -187500.02, -186482.88, 187500.00, 187500.00, 33408.70, 187500.00, 0.00, 0.00, 0.00
53, 4238.20, 6580.00, -187500.02, -186536.08, 187500.00, 187500.00, 33275.58, 187500.00, 0.00, 0.00, 0.00
54, 4223.99, 6573.22, -187500.02, -186803.92, 187500.00, 187500.00, 33318.94, 187500.00, 0.00, 0.00, 0.00
55, 4258.63, 6585.58, -187500.02, -186486.00, 187500.00, 187500.00, 33458.14, 187500.00, 0.00, 0.00, 0.00
56, 4276.29, 6589.70, -187500.02, -185022.23, 187500.00, 187500.00, 33437.61, 187500.00, 0.00, 0.00, 0.00
57, 4247.79, 6582.90, -187500.02, -184830.69, 187500.00, 187500.00, 33295.58, 187500.00, 0.14, 0.83, 0.54
58, 4224.81, 6573.83, -187500.02, -185918.45, 187500.00, 187500.00, 33286.91, 187500.00, 0.00, 0.00, 0.00
59, 4247.37, 6578.41, -187500.02, -185375.28, 187500.00, 187500.00, 33427.55, 187500.00, 0.00, 0.00, 0.00
60, 4275.13, 6590.93, -187500.02, -183344.36, 187500.00, 187500.00, 33449.30, 187500.00, 0.00, 0.00, 0.00
61, 4248.84, 6580.31, -187500.02, -182762.14, 187500.00, 187500.00, 33314.78, 187500.00, 0.00, 0.00, 0.00
62, 4217.84, 6566.96, -187500.02, -183751.77, 187500.00, 187500.00, 33286.98, 187500.00, 0.00, 0.00, 0.00
63, 4232.24, 6568.75, -187500.02, -183570.67, 187500.00, 187500.00, 33405.53, 187500.00, 0.00, 0.00, 0.00
64, 4272.92, 6586.92, -187500.02, -181685.30, 187500.00, 187500.00, 33453.32, 187500.00, 0.00, 0.00, 0.00
65, 4265.00, 6588.36, -187500.02, -180752.78, 187500.00, 187500.00, 33331.39, 187500.00, 0.00, 0.00, 0.00
66, 4231.99, 6573.83, -187500.02, -181641.88, 187500.00, 187500.00, 33253.92, 187500.00, 0.00, 0.00, 0.00
67, 4247.32, 6581.63, -187500.02, -181783.28, 187500.00, 187500.00, 33366.71, 187500.00, 0.14, 0.83, 0.54
68, 4287.44, 6597.81, -187500.02, -179620.17, 187500.00, 187500.00, 33442.88, 187500.00, 0.00, 0.00, 0.00
69, 4278.15, 6590.34, -187500.02, -177982.91, 187500.00, 187500.00, 33332.98, 187500.00, 0.00, 0.00, 0.00
70, 4236.24, 6570.83, -187500.02, -178637.30, 187500.00, 187500.00, 33228.53, 187500.00, 0.00, 0.00, 0.00
71, 4238.63, 6574.23, -187500.02, -179105.17, 187500.00, 187500.00, 33314.18, 187500.00, 0.00, 0.00, 0.00
72, 4278.10, 6587.68, -187500.02, -177601.20, 187500.00, 187500.00, 33421.33, 187500.00, 0.00, 0.00, 0.00
73, 4286.04, 6590.88, -187500.02, -176055.92, 187500.00, 187500.00, 33346.66, 187500.00, 0.00, 0.00, 0.00
74, 4250.50, 6577.40, -187500.02, -176503.94, 187500.00, 187500.00, 33218.51, 187500.00, 0.00, 0.00, 0.00
75, 4238.27, 6570.09, -187500.02, -177281.22, 187500.00, 187500.00, 33277.79, 187500.00, 0.00, 0.00, 0.00
76, 4277.14, 6585.36, -187500.02, -176140.33, 187500.00, 187500.00, 33408.61, 187500.00, 0.00, 0.00, 0.00
77, 4285.21, 6582.61, -187500.02, -174457.95, 187500.00, 187500.00, 33354.03, 187500.00, 0.14, 0.82, 0.54
78, 4243.75, 6563.86, -187500.02, -174646.69, 187500.00, 187500.00, 33217.11, 187500.00, 0.00, 0.00, 0.00
79, 4225.06, 6554.87, -187500.02, -175631.63, 187500.00, 187500.00, 33247.50, 187500.00, 0.00, 0.00, 0.00
80, 4251.41, 6559.90, -187500.02, -174857.89, 187500.00, 187500.00, 33375.94, 187500.00, 0.00, 0.00, 0.00
81, 4268.74, 6561.15, -187500.02, -173055.06, 187500.00, 187500.00, 33361.32, 187500.00, 0.00, 0.00, 0.00
82, 4243.17, 6554.94, -187500.02, -172869.17, 187500.00, 187500.00, 33235.68, 187500.00, 0.00, 0.00, 0.00
83, 4215.43, 6545.51, -187500.02, -173929.98, 187500.00, 187500.00, 33228.23, 187500.00, 0.00, 0.00, 0.00
84, 4230.27, 6544.95, -187500.02, -173541.22, 187500.00, 187500.00, 33349.88, 187500.00, 0.00, 0.00, 0.00
85, 4272.04, 6570.27, -187500.02, -171737.19, 187500.00, 187500.00, 33389.17, 187500.00, 0.00, 0.00, 0.00
86, 4245.13, 6556.64, -187500.02, -171217.00, 187500.00, 187500.00, 33255.30, 187500.00, 0.00, 0.00, 0.00
87, 4219.94, 6548.01, -187500.02, -172298.11, 187500.00, 187500.00, 33211.52, 187500.00, 0.14, 0.84, 0.54
88, 4230.69, 6547.59, -187500.02, -172308.08, 187500.00, 187500.00, 33332.89, 187500.00, 0.00, 0.00, 0.00
89, 4265.58, 6561.22, -187500.02, -170577.83, 187500.00, 187500.00, 33397.21, 187500.00, 0.00, 0.00, 0.00
90, 4257.18, 6559.03, -187500.02, -169690.06, 187500.00, 187500.00, 33277.75, 187500.00, 0.00, 0.00, 0.00
91, 4220.99, 6544.84, -187500.02, -170646.42, 187500.00, 187500.00, 33200.57, 187500.00, 0.00, 0.00, 0.00
92, 4225.13, 6552.17, -187500.02, -171014.08, 187500.00, 187500.00, 33302.38, 187500.00, 0.00, 0.00, 0.00
93, 4263.57, 6570.05, -187500.02, -169492.64, 187500.00, 187500.00, 33378.77, 187500.00, 0.00, 0.00, 0.00
94, 4260.33, 6564.55, -187500.02, -168341.55, 187500.00, 187500.00, 33281.66, 187500.00, 0.00, 0.00, 0.00
95, 4225.62, 6549.15, -187500.02, -169158.27, 187500.00, 187500.00, 33185.25, 187500.00, 0.00, 0.00, 0.00
96, 4228.84, 6555.79, -187500.02, -169888.19, 187500.00, 187500.00, 33273.16, 187500.00, 0.00, 0.00, 0.00
97, 4267.51, 6574.18, -187500.02, -168652.69, 187500.00, 187500.00, 33390.35, 187500.00, 0.15, 0.83, 0.54
98, 4271.06, 6576.35, -187500.02, -167253.97, 187500.00, 187500.00, 33317.42, 187500.00, 0.00, 0.00, 0.00
99, 4229.24, 6558.52, -187500.02, -167810.09, 187500.00, 187500.00, 33196.21, 187500.00, 0.00, 0.00, 0.00
100, 4215.40, 6549.69, -187500.02, -168805.28, 187500.00, 187500.00, 33247.30, 187500.00, 0.00, 0.00, 0.00
101, 4249.45, 6565.71, -187500.02, -167938.19, 187500.00, 187500.00, 33375.00, 187500.00, 0.00, 0.00, 0.00
102, 4267.64, 6578.77, -187500.02, -166426.77, 187500.00, 187500.00, 33343.59, 187500.00, 0.00, 0.00, 0.00
103, 4230.16, 6561.11, -187500.02, -166726.03, 187500.00, 187500.00, 33206.87, 187500.00, 0.00, 0.00, 0.00
104, 4213.73, 6552.99, -187500.02, -167927.28, 187500.00, 187500.00, 33224.50, 187500.00, 0.00, 0.00, 0.00
105, 4242.34, 6561.96, -187500.02, -167463.00, 187500.00, 187500.00, 33349.70, 187500.00, 0.00, 0.00, 0.00
106, 4259.12, 6563.34, -187500.02, -165895.14, 187500.00, 187500.00, 33344.40, 187500.00, 0.15, 0.82, 0.54
107, 4243.75, 6564.75, -187500.02, -165872.73, 187500.00, 187500.00, 33229.42, 187500.00, 0.00, 0.00, 0.00
108, 4215.72, 6554.27, -187500.02, -167183.06, 187500.00, 187500.00, 33214.38, 187500.00, 0.00, 0.00, 0.00
109, 4241.15, 6564.91, -187500.02, -167160.67, 187500.00, 187500.00, 33347.48, 187500.00, 0.00, 0.00, 0.00
110, 4265.90, 6573.40, -187500.02, -165685.66, 187500.00, 187500.00, 33372.67, 187500.00, 0.00, 0.00, 0.00
111, 4229.20, 6551.74, -187500.02, -165416.69, 187500.00, 187500.00, 33228.95, 187500.00, 0.00, 0.00, 0.00
112, 4205.91, 6549.35, -187500.02, -166816.16, 187500.00, 187500.00, 33187.18, 187500.00, 0.00, 0.00, 0.00
113, 4227.85, 6558.20, -187500.02, -167283.44, 187500.00, 187500.00, 33313.71, 187500.00, 0.00, 0.00, 0.00
114, 4260.56, 6567.17, -187500.02, -166027.56, 187500.00, 187500.00, 33368.52, 187500.00, 0.00, 0.00, 0.00
115, 4244.08, 6560.93, -187500.02, -165557.84, 187500.00, 187500.00, 33247.59, 187500.00, 0.00, 0.00, 0.00
116, 4209.24, 6546.11, -187500.02, -167009.92, 187500.00, 187500.00, 33165.94, 187500.00, 0.15, 0.83, 0.54
117, 4217.15, 6550.65, -187500.02, -168021.05, 187500.00, 187500.00, 33265.54, 187500.00, 0.00, 0.00, 0.00
118, 4257.18, 6568.24, -187500.02, -167161.45, 187500.00, 187500.00, 33355.73, 187500.00, 0.00, 0.00, 0.00
119, 4258.45, 6571.14, -187500.02, -166580.23, 187500.00, 187500.00, 33258.10, 187500.00, 0.00, 0.00, 0.00
120, 4212.14, 6549.08, -187500.02, -167985.38, 187500.00, 187500.00, 33150.74, 187500.00, 0.00, 0.00, 0.00
121, 4207.29, 6546.02, -187500.02, -169422.73, 187500.00, 187500.00, 33222.31, 187500.00, 0.00, 0.00, 0.00
122, 4245.67, 6562.67, -187500.02, -168914.73, 187500.00, 187500.00, 33333.45, 187500.00, 0.00, 0.00, 0.00
123, 4249.60, 6562.09, -187500.02, -168125.48, 187500.00, 187500.00, 33262.37, 187500.00, 0.00, 0.00, 0.00
124, 4212.81, 6548.48, -187500.02, -169241.91, 187500.00, 187500.00, 33134.07, 187500.00, 0.00, 0.00, 0.00
125, 4206.24, 6549.04, -187500.02, -170878.88, 187500.00, 187500.00, 33185.05, 187500.00, 0.00, 0.00, 0.00
126, 4244.08, 6565.40, -187500.02, -170675.72, 187500.00, 187500.00, 33308.46, 187500.00, 0.14, 0.83, 0.53
127, 4256.76, 6567.55, -187500.02, -169715.98, 187500.00, 187500.00, 33272.61, 187500.00, 0.00, 0.00, 0.00
128, 4211.09, 6540.99, -187500.02, -170511.28, 187500.00, 187500.00, 33129.73, 187500.00, 0.00, 0.00, 0.00
129, 4207.09, 6547.47, -187500.02, -172301.64, 187500.00, 187500.00, 33151.91, 187500.00, 0.00, 0.00, 0.00
130, 4239.75, 6561.47, -187500.02, -172492.61, 187500.00, 187500.00, 33282.37, 187500.00, 0.00, 0.00, 0.00
131, 4264.24, 6575.06, -187500.02, -171503.28, 187500.00, 187500.00, 33277.30, 187500.00, 0.00, 0.00, 0.00
132, 4233.31, 6558.20, -187500.02, -172004.47, 187500.00, 187500.00, 33144.93, 187500.00, 0.00, 0.00, 0.00
133, 4197.21, 6538.94, -187500.02, -173928.91, 187500.00, 187500.00, 33131.68, 187500.00, 0.00, 0.00, 0.00
134, 4217.91, 6547.79, -187500.02, -174600.95, 187500.00, 187500.00, 33263.11, 187500.00, 0.00, 0.00, 0.00
135, 4250.70, 6565.22, -187500.02, -173745.73, 187500.00, 187500.00, 33292.99, 187500.00, 0.00, 0.00, 0.00
136, 4233.26, 6558.60, -187500.02, -173996.09, 187500.00, 187500.00, 33164.80, 187500.00, 0.15, 0.83, 0.53
137, 4198.19, 6542.11, -187500.02, -175970.30, 187500.00, 187500.00, 33113.21, 187500.00, 0.00, 0.00, 0.00
138, 4211.14, 6545.60, -187500.02, -177103.50, 187500.00, 187500.00, 33223.88, 187500.00, 0.00, 0.00, 0.00
139, 4242.63, 6556.28, -187500.02, -176436.81, 187500.00, 187500.00, 33276.76, 187500.00, 0.00, 0.00, 0.00
140, 4241.76, 6561.67, -187500.02, -176392.30, 187500.00, 187500.00, 33182.75, 187500.00, 0.00, 0.00, 0.00
141, 4201.14, 6543.61, -187500.02, -178363.34, 187500.00, 187500.00, 33100.00, 187500.00, 0.00, 0.00, 0.00
142, 4198.26, 6540.86, -187500.02, -180351.58, 187500.00, 187500.00, 33189.37, 187500.00, 0.00, 0.00, 0.00
143, 4240.15, 6562.38, -187500.02, -180020.47, 187500.00, 187500.00, 33281.61, 187500.00, 0.00, 0.00, 0.00
144, 4244.84, 6569.67, -187500.02, -179668.66, 187500.00, 187500.00, 33201.79, 187500.00, 0.00, 0.00, 0.00
145, 4204.01, 6550.78, -187500.02, -181270.70, 187500.00, 187500.00, 33102.13, 187500.00, 0.00, 0.00, 0.00
146, 4191.82, 6539.47, -187500.02, -183011.61, 187500.00, 187500.00, 33165.54, 187500.00, 0.15, 0.83, 0.54
147, 4224.44, 6549.11, -187500.02, -182778.03, 187500.00, 187500.00, 33281.16, 187500.00, 0.00, 0.00, 0.00
148, 4239.25, 6558.18, -187500.02, -182142.45, 187500.00, 187500.00, 33229.84, 187500.00, 0.00, 0.00, 0.00
149, 4202.87, 6541.95, -187500.02, -183418.75, 187500.00, 187500.00, 33104.27, 187500.00, 0.00, 0.00, 0.00
150, 4178.75, 6526.33, -187500.02, -185035.72, 187500.00, 187500.00, 33128.66, 187500.00, 0.00, 0.00, 0.00
151, 4221.40, 6546.09, -187500.02, -185233.34, 187500.00, 187500.00, 33253.58, 187500.00, 0.00, 0.00, 0.00
152, 4246.07, 6563.12, -187500.02, -184880.06, 187500.00, 187500.00, 33239.32, 187500.00, 0.00, 0.00, 0.00
153, 4206.44, 6545.64, -187500.02, -185120.47, 187500.00, 187500.00, 33113.13, 187500.00, 0.00, 0.00, 0.00
154, 4175.17, 6524.85, -187500.02, -185311.88, 187500.00, 187500.00, 33103.78, 187500.00, 0.00, 0.00, 0.00
155, 4208.19, 6541.30, -187500.02, -185316.86, 187500.00, 187500.00, 33235.41, 187500.00, 0.00, 0.00, 0.00
156, 4238.00, 6559.52, -187500.02, -185318.22, 187500.00, 187500.00, 33244.48, 187500.00, 0.15, 0.82, 0.55
157, 4217.91, 6553.91, -187500.02, -185319.53, 187500.00, 187500.00, 33111.49, 187500.00, 0.00, 0.00, 0.00
158, 4183.20, 6535.69, -187500.02, -185318.69, 187500.00, 187500.00, 33080.40, 187500.00, 0.00, 0.00, 0.00
159, 4200.92, 6538.20, -187500.02, -185318.42, 187500.00, 187500.00, 33193.48, 187500.00, 0.00, 0.00, 0.00
160, 4237.64, 6555.97, -187500.02, -185320.23, 187500.00, 187500.00, 33242.39, 187500.00, 0.00, 0.00, 0.00
161, 4221.98, 6548.35, -187500.02, -185318.28, 187500.00, 187500.00, 33123.03, 187500.00, 0.00, 0.00, 0.00
162, 4187.80, 6536.30, -187500.02, -185314.64, 187500.00, 187500.00, 33061.76, 187500.00, 0.00, 0.00, 0.00
163, 4196.29, 6538.71, -187500.02, -185317.03, 187500.00, 187500.00, 33168.16, 187500.00, 0.00, 0.00, 0.00
164, 4232.68, 6552.17, -187500.02, -185317.61, 187500.00, 187500.00, 33229.24, 187500.00, 0.00, 0.00, 0.00
165, 4231.83, 6556.86, -187500.02, -185317.56, 187500.00, 187500.00, 33135.54, 187500.00, 0.00, 0.00, 0.00
166, 4191.13, 6536.23, -187500.02, -185316.00, 187500.00, 187500.00, 33059.86, 187500.00, 0.15, 0.82, 0.54
167, 4183.49, 6525.64, -187500.02, -185315.05, 187500.00, 187500.00, 33138.76, 187500.00, 0.00, 0.00, 0.00
168, 4229.33, 6551.39, -187500.02, -185316.78, 187500.00, 187500.00, 33231.93, 187500.00, 0.00, 0.00, 0.00
169, 4234.23, 6556.46, -187500.02, -185317.13, 187500.00, 187500.00, 33150.65, 187500.00, 0.00, 0.00, 0.00
170, 4183.31, 6528.39, -187500.02, -185313.50, 187500.00, 187500.00, 33034.58, 187500.00, 0.00, 0.00, 0.00
171, 4173.92, 6520.25, -187500.02, -185311.22, 187500.00, 187500.00, 33095.73, 187500.00, 0.00, 0.00, 0.00
172, 4213.66, 6539.85, -187500.02, -185310.95, 187500.00, 187500.00, 33205.04, 187500.00, 0.00, 0.00, 0.00
173, 4232.06, 6553.69, -187500.02, -185311.22, 187500.00, 187500.00, 33150.00, 187500.00, 0.00, 0.00, 0.00
174, 4191.87, 6532.25, -187500.02, -185310.81, 187500.00, 187500.00, 33019.92, 187500.00, 0.00, 0.00, 0.00
175, 4163.19, 6512.58, -187500.02, -185307.59, 187500.00, 187500.00, 33054.34, 187500.00, 0.00, 0.00, 0.00
176, 4185.99, 6518.93, -187500.02, -185305.88, 187500.00, 187500.00, 33168.56, 187500.00, 0.14, 0.82, 0.54
177, 4204.65, 6525.97, -187500.02, -185306.81, 187500.00, 187500.00, 33141.73, 187500.00, 0.00, 0.00, 0.00
178, 4163.33, 6501.03, -187500.02, -185303.53, 187500.00, 187500.00, 33009.26, 187500.00, 0.00, 0.00, 0.00
179, 4122.02, 6477.42, -187500.02, -185300.02, 187500.00, 187500.00, 33008.34, 187500.00, 0.00, 0.00, 0.00
180, 4143.97, 6482.52, -187500.02, -185297.66, 187500.00, 187500.00, 33125.13, 187500.00, 0.00, 0.00, 0.00
181, 4176.24, 6496.38, -187500.02, -185299.55, 187500.00, 187500.00, 33138.94, 187500.00, 0.00, 0.00, 0.00
182, 4160.02, 6496.06, -187500.02, -185298.50, 187500.00, 187500.00, 33019.45, 187500.00, 0.00, 0.00, 0.00
183, 4127.50, 6480.15, -187500.02, -185295.23, 187500.00, 187500.00, 32979.82, 187500.00, 0.00, 0.00, 0.00
184, 4143.92, 6488.67, -187500.02, -185290.80, 187500.00, 187500.00, 33090.66, 187500.00, 0.00, 0.00, 0.00
185, 4188.25, 6513.86, -187500.02, -185290.75, 187500.00, 187500.00, 33139.84, 187500.00, 0.00, 0.00, 0.00
186, 4176.33, 6512.05, -187500.02, -185292.05, 187500.00, 187500.00, 33024.25, 187500.00, 0.14, 0.82, 0.54
187, 4140.97, 6499.40, -187500.02, -185287.59, 187500.00, 187500.00, 32952.44, 187500.00, 0.00, 0.00, 0.00
188, 4148.10, 6500.27, -187500.02, -185284.31, 187500.00, 187500.00, 33049.94, 187500.00, 0.00, 0.00, 0.00
189, 4176.18, 6508.51, -187500.02, -185284.75, 187500.00, 187500.00, 33109.62, 187500.00, 0.00, 0.00, 0.00
190, 4187.17, 6522.93, -187500.02, -185281.30, 187500.00, 187500.00, 33023.72, 187500.00, 0.00, 0.00, 0.00
191, 4146.76, 6503.78, -187500.02, -185277.73, 187500.00, 187500.00, 32927.98, 187500.00, 0.00, 0.00, 0.00
192, 4140.53, 6500.13, -187500.02, -185272.08, 187500.00, 187500.00, 33005.64, 187500.00, 0.00, 0.00, 0.00
193, 4173.50, 6512.11, -187500.02, -185268.80, 187500.00, 187500.00, 33094.26, 187500.00, 0.00, 0.00, 0.00
194, 4174.61, 6514.17, -187500.02, -185266.36, 187500.00, 187500.00, 33014.93, 187500.00, 0.00, 0.00, 0.00
195, 4125.86, 6489.11, -187500.02, -185260.59, 187500.00, 187500.00, 32886.32, 187500.00, 0.14, 0.83, 0.54
196, 4114.91, 6480.91, -187500.02, -185253.36, 187500.00, 187500.00, 32936.14, 187500.00, 0.00, 0.00, 0.00
197, 4143.79, 6487.62, -187500.02, -185247.78, 187500.00, 187500.00, 33037.24, 187500.00, 0.00, 0.00, 0.00
198, 4160.20, 6499.35, -187500.02, -185240.92, 187500.00, 187500.00, 32999.69, 187500.00, 0.00, 0.00, 0.00
199, 4123.74, 6482.63, -187500.02, -185230.13, 187500.00, 187500.00, 32888.64, 187500.00, 0.00, 0.00, 0.00
200, 4115.85, 6482.77, -187500.02, -185221.17, 187500.00, 187500.00, 32942.74, 187500.00, 0.00, 0.00, 0.00
201, 4147.57, 6493.65, -187500.02, -185216.52, 187500.00, 187500.00, 33062.05, 187500.00, 0.00, 0.00, 0.00
202, 4166.01, 6501.85, -187500.02, -185216.11, 187500.00, 187500.00, 33039.86, 187500.00, 0.00, 0.00, 0.00
203, 4118.09, 6481.85, -187500.02, -185208.16, 187500.00, 187500.00, 32877.94, 187500.00, 0.00, 0.00, 0.00
204, 4066.92, 6454.27, -187500.02, -185194.56, 187500.00, 187500.00, 32869.22, 187500.00, 0.00, 0.00, 0.00
205, 4114.55, 6481.89, -187500.02, -185189.05, 187500.00, 187500.00, 33049.49, 187500.00, 0.15, 0.83, 0.54
206, 4161.72, 6510.91, -187500.02, -185190.70, 187500.00, 187500.00, 33097.70, 187500.00, 0.00, 0.00, 0.00
207, 4149.67, 6510.12, -187500.02, -185185.97, 187500.00, 187500.00, 32990.13, 187500.00, 0.00, 0.00, 0.00
208, 4113.21, 6492.04, -187500.02, -185179.30, 187500.00, 187500.00, 32953.31, 187500.00, 0.00, 0.00, 0.00
209, 4134.07, 6504.00, -187500.02, -185178.25, 187500.00, 187500.00, 33074.14, 187500.00, 0.00, 0.00, 0.00
210, 4167.84, 6519.20, -187500.02, -185182.56, 187500.00, 187500.00, 33134.87, 187500.00, 0.00, 0.00, 0.00
211, 4153.94, 6514.95, -187500.02, -185182.19, 187500.00, 187500.00, 33031.99, 187500.00, 0.00, 0.00, 0.00
212, 4119.83, 6502.55, -187500.02, -185176.02, 187500.00, 187500.00, 32970.07, 187500.00, 0.00, 0.00, 0.00
213, 4130.07, 6507.49, -187500.02, -185173.44, 187500.00, 187500.00, 33085.70, 187500.00, 0.00, 0.00, 0.00
214, 4172.94, 6526.89, -187500.02, -185176.39, 187500.00, 187500.00, 33173.09, 187500.00, 0.00, 0.00, 0.00
215, 4166.41, 6521.59, -187500.02, -185176.63, 187500.00, 187500.00, 33078.59, 187500.00, 0.15, 0.82, 0.54
216, 4132.35, 6508.67, -187500.02, -185173.52, 187500.00, 187500.00, 32986.91, 187500.00, 0.00, 0.00, 0.00
217, 4130.74, 6510.59, -187500.02, -185171.70, 187500.00, 187500.00, 33062.61, 187500.00, 0.00, 0.00, 0.00
218, 4170.90, 6530.11, -187500.02, -185174.03, 187500.00, 187500.00, 33169.85, 187500.00, 0.00, 0.00, 0.00
219, 4177.70, 6534.82, -187500.02, -185176.53, 187500.00, 187500.00, 33107.61, 187500.00, 0.00, 0.00, 0.00
220, 4141.51, 6522.53, -187500.02, -185175.23, 187500.00, 187500.00, 32990.04, 187500.00, 0.00, 0.00, 0.00
221, 4132.26, 6518.08, -187500.02, -185172.03, 187500.00, 187500.00, 33039.57, 187500.00, 0.00, 0.00, 0.00
222, 4164.47, 6529.64, -187500.02, -185174.27, 187500.00, 187500.00, 33153.76, 187500.00, 0.00, 0.00, 0.00
223, 4187.40, 6542.20, -187500.02, -185178.30, 187500.00, 187500.00, 33116.72, 187500.00, 0.00, 0.00, 0.00
224, 4154.76, 6525.32, -187500.02, -185176.59, 187500.00, 187500.00, 32995.42, 187500.00, 0.00, 0.00, 0.00
225, 4130.18, 6510.06, -187500.02, -185172.02, 187500.00, 187500.00, 33005.19, 187500.00, 0.15, 0.83, 0.53
226, 4157.25, 6518.06, -187500.02, -185172.11, 187500.00, 187500.00, 33122.49, 187500.00, 0.00, 0.00, 0.00
227, 4173.45, 6521.52, -187500.02, -185174.19, 187500.00, 187500.00, 33115.36, 187500.00, 0.00, 0.00, 0.00
228, 4163.37, 6526.78, -187500.02, -185173.48, 187500.00, 187500.00, 33014.84, 187500.00, 0.00, 0.00, 0.00
229, 4136.95, 6518.64, -187500.02, -185168.91, 187500.00, 187500.00, 32993.05, 187500.00, 0.00, 0.00, 0.00
230, 4163.30, 6532.43, -187500.02, -185168.30, 187500.00, 187500.00, 33116.14, 187500.00, 0.00, 0.00, 0.00
231, 4195.98, 6546.98, -187500.02, -185172.22, 187500.00, 187500.00, 33145.71, 187500.00, 0.00, 0.00, 0.00
232, 4173.43, 6533.66, -187500.02, -185171.77, 187500.00, 187500.00, 33016.34, 187500.00, 0.00, 0.00, 0.00
233, 4139.63, 6516.83, -187500.02, -185166.03, 187500.00, 187500.00, 32968.49, 187500.00, 0.00, 0.00, 0.00
234, 4155.06, 6524.32, -187500.02, -185165.52, 187500.00, 187500.00, 33083.62, 187500.00, 0.00, 0.00, 0.00
235, 4192.99, 6542.67, -187500.02, -185171.88, 187500.00, 187500.00, 33144.86, 187500.00, 0.15, 0.83, 0.54
236, 4174.17, 6533.39, -187500.02, -185171.20, 187500.00, 187500.00, 33030.82, 187500.00, 0.00, 0.00, 0.00
237, 4126.09, 6505.10, -187500.02, -185168.95, 187500.00, 187500.00, 32952.71, 187500.00, 0.00, 0.00, 0.00
238, 4138.94, 6513.83, -187500.02, -185168.64, 187500.00, 187500.00, 33057.11, 187500.00, 0.00, 0.00, 0.00
239, 4173.54, 6529.61, -187500.02, -185170.11, 187500.00, 187500.00, 33144.44, 187500.00, 0.00, 0.00, 0.00
240, 4168.67, 6525.79, -187500.02, -185171.45, 187500.00, 187500.00, 33050.36, 187500.00, 0.00, 0.00, 0.00
241, 4134.16, 6514.10, -187500.02, -185167.20, 187500.00, 187500.00, 32947.50, 187500.00, 0.00, 0.00, 0.00
242, 4132.44, 6511.35, -187500.02, -185161.55, 187500.00, 187500.00, 33025.84, 187500.00, 0.00, 0.00, 0.00
243, 4175.35, 6525.75, -187500.02, -185163.78, 187500.00, 187500.00, 33135.97, 187500.00, 0.00, 0.00, 0.00
244, 4186.68, 6532.10, -187500.02, -185167.19, 187500.00, 187500.00, 33067.75, 187500.00, 0.00, 0.00, 0.00
245, 4145.24, 6508.81, -187500.02, -185166.58, 187500.00, 187500.00, 32945.00, 187500.00, 0.14, 0.82, 0.54
246, 4132.12, 6498.99, -187500.02, -185162.66, 187500.00, 187500.00, 32996.11, 187500.00, 0.00, 0.00, 0.00
247, 4173.92, 6516.76, -187500.02, -185164.53, 187500.00, 187500.00, 33126.89, 187500.00, 0.00, 0.00, 0.00
248, 4196.29, 6528.18, -187500.02, -185166.58, 187500.00, 187500.00, 33103.83, 187500.00, 0.00, 0.00, 0.00
249, 4167.28, 6517.84, -187500.02, -185164.80, 187500.00, 187500.00, 32986.61, 187500.00, 0.00, 0.00, 0.00
250, 4149.22, 6512.16, -187500.02, -185160.70, 187500.00, 187500.00, 33008.18, 187500.00, 0.00, 0.00, 0.00
251, 4184.34, 6523.45, -187500.02, -185160.91, 187500.00, 187500.00, 33144.91, 187500.00, 0.00, 0.00, 0.00
252, 4213.28, 6534.47, -187500.02, -185166.77, 187500.00, 187500.00, 33163.04, 187500.00, 0.00, 0.00, 0.00
253, 4184.89, 6522.13, -187500.02, -185164.80, 187500.00, 187500.00, 33044.21, 187500.00, 0.00, 0.00, 0.00
254, 4150.52, 6502.48, -187500.02, -185159.92, 187500.00, 187500.00, 33028.75, 187500.00, 0.00, 0.00, 0.00
255, 4174.75, 6512.76, -187500.02, -185158.06, 187500.00, 187500.00, 33154.09, 187500.00, 0.14, 0.82, 0.54
0, 4212.86, 6532.81, -187500.02, -185164.53, 187500.00, 187500.00, 33191.33, 187500.00, 0.00, 0.00, 0.00
1, 4201.64, 6530.75, -187500.02, -185164.95, 187500.00, 187500.00, 33076.65, 187500.00, 0.00, 0.00, 0.00
2, 4163.88, 6510.39, -187500.02, -185160.22, 187500.00, 187500.00, 33026.89, 187500.00, 0.00, 0.00, 0.00
3, 4176.09, 6511.60, -187500.02, -185157.36, 187500.00, 187500.00, 33135.41, 187500.00, 0.00, 0.00, 0.00
4, 4212.50, 6526.84, -187500.02, -185161.02, 187500.00, 187500.00, 33192.29, 187500.00, 0.00, 0.00, 0.00
5, 4202.66, 6522.40, -187500.02, -185161.80, 187500.00, 187500.00, 33084.36, 187500.00, 0.00, 0.00, 0.00
6, 4163.84, 6506.37, -187500.02, -185158.88, 187500.00, 187500.00, 33005.19, 187500.00, 0.00, 0.00, 0.00
7, 4167.44, 6508.47, -187500.02, -185157.17, 187500.00, 187500.00, 33090.37, 187500.00, 0.00, 0.00, 0.00
8, 4208.12, 6526.98, -187500.02, -185159.34, 187500.00, 187500.00, 33186.15, 187500.00, 0.00, 0.00, 0.00
9, 4206.58, 6525.44, -187500.02, -185163.28, 187500.00, 187500.00, 33103.18, 187500.00, 0.14, 0.83, 0.54
10, 4162.88, 6503.02, -187500.02, -185160.48, 187500.00, 187500.00, 32992.07, 187500.00, 0.00, 0.00, 0.00
11, 4161.98, 6508.29, -187500.02, -185157.63, 187500.00, 187500.00, 33056.93, 187500.00, 0.00, 0.00, 0.00
12, 4200.54, 6528.54, -187500.02, -185159.81, 187500.00, 187500.00, 33171.22, 187500.00, 0.00, 0.00, 0.00
13, 4217.24, 6536.07, -187500.02, -185162.67, 187500.00, 187500.00, 33126.67, 187500.00, 0.00, 0.00, 0.00
14, 4172.18, 6511.47, -187500.02, -185162.05, 187500.00, 187500.00, 33008.34, 187500.00, 0.00, 0.00, 0.00
15, 4157.49, 6507.02, -187500.02, -185157.80, 187500.00, 187500.00, 33042.63, 187500.00, 0.00, 0.00, 0.00
16, 4198.46, 6528.45, -187500.02, -185158.80, 187500.00, 187500.00, 33162.07, 187500.00, 0.00, 0.00, 0.00
17, 4220.64, 6538.31, -187500.02, -185160.03, 187500.00, 187500.00, 33138.54, 187500.00, 0.00, 0.00, 0.00
18, 4190.13, 6524.12, -187500.02, -185157.02, 187500.00, 187500.00, 33023.90, 187500.00, 0.15, 0.82, 0.54
19, 4160.49, 6507.38, -187500.02, -185154.00, 187500.00, 187500.00, 33031.32, 187500.00, 0.00, 0.00, 0.00
20, 4192.92, 6524.81, -187500.02, -185156.17, 187500.00, 187500.00, 33159.91, 187500.00, 0.00, 0.00, 0.00
21, 4217.51, 6534.09, -187500.02, -185159.52, 187500.00, 187500.00, 33160.22, 187500.00, 0.00, 0.00, 0.00
22, 4187.80, 6518.95, -187500.02, -185158.47, 187500.00, 187500.00, 33027.96, 187500.00, 0.00, 0.00, 0.00
23, 4155.08, 6505.32, -187500.02, -185153.08, 187500.00, 187500.00, 32997.23, 187500.00, 0.00, 0.00, 0.00
24, 4174.90, 6511.69, -187500.02, -185150.78, 187500.00, 187500.00, 33106.06, 187500.00, 0.00, 0.00, 0.00
25, 4210.62, 6530.11, -187500.02, -185154.31, 187500.00, 187500.00, 33140.93, 187500.00, 0.00, 0.00, 0.00
26, 4196.96, 6523.65, -187500.02, -185156.59, 187500.00, 187500.00, 33029.98, 187500.00, 0.00, 0.00, 0.00
27, 4159.99, 6503.71, -187500.02, -185151.92, 187500.00, 187500.00, 32971.23, 187500.00, 0.00, 0.00, 0.00
28, 4169.18, 6505.88, -187500.02, -185149.31, 187500.00, 187500.00, 33078.90, 187500.00, 0.15, 0.82, 0.54
29, 4207.92, 6523.67, -187500.02, -185152.64, 187500.00, 187500.00, 33143.86, 187500.00, 0.00, 0.00, 0.00
30, 4202.26, 6523.33, -187500.02, -185152.97, 187500.00, 187500.00, 33049.02, 187500.00, 0.00, 0.00, 0.00
31, 4159.84, 6502.88, -187500.02, -185148.20, 187500.00, 187500.00, 32967.46, 187500.00, 0.00, 0.00, 0.00
32, 4157.85, 6499.95, -187500.02, -185143.72, 187500.00, 187500.00, 33045.00, 187500.00, 0.00, 0.00, 0.00
33, 4199.42, 6522.26, -187500.02, -185147.86, 187500.00, 187500.00, 33135.81, 187500.00, 0.00, 0.00, 0.00
34, 4201.30, 6524.76, -187500.02, -185151.81, 187500.00, 187500.00, 33062.83, 187500.00, 0.00, 0.00, 0.00
35, 4161.29, 6507.17, -187500.02, -185148.83, 187500.00, 187500.00, 32956.48, 187500.00, 0.00, 0.00, 0.00
36, 4155.32, 6502.14, -187500.02, -185144.30, 187500.00, 187500.00, 33013.48, 187500.00, 0.00, 0.00, 0.00
37, 4191.49, 6515.29, -187500.02, -185145.61, 187500.00, 187500.00, 33125.60, 187500.00, 0.00, 0.00, 0.00
38, 4203.11, 6523.09, -187500.02, -185149.81, 187500.00, 187500.00, 33069.02, 187500.00, 0.15, 0.82, 0.54
39, 4169.67, 6510.28, -187500.02, -185148.09, 187500.00, 187500.00, 32941.02, 187500.00, 0.00, 0.00, 0.00
40, 4153.69, 6499.75, -187500.02, -185143.89, 187500.00, 187500.00, 32966.00, 187500.00, 0.00, 0.00, 0.00
41, 4189.41, 6514.55, -187500.02, -185144.39, 187500.00, 187500.00, 33085.30, 187500.00, 0.00, 0.00, 0.00
42, 4209.17, 6524.03, -187500.02, -185148.97, 187500.00, 187500.00, 33065.36, 187500.00, 0.00, 0.00, 0.00
43, 4176.76, 6511.17, -187500.02, -185148.91, 187500.00, 187500.00, 32953.20, 187500.00, 0.00, 0.00, 0.00
44, 4150.63, 6498.46, -187500.02, -185145.94, 187500.00, 187500.00, 32950.34, 187500.00, 0.00, 0.00, 0.00
45, 4174.03, 6506.57, -187500.02, -185144.67, 187500.00, 187500.00, 33066.48, 187500.00, 0.00, 0.00, 0.00
46, 4205.77, 6523.74, -187500.02, -185147.86, 187500.00, 187500.00, 33082.79, 187500.00, 0.00, 0.00, 0.00
47, 4177.18, 6509.63, -187500.02, -185146.84, 187500.00, 187500.00, 32964.11, 187500.00, 0.00, 0.00, 0.00
48, 4144.48, 6494.28, -187500.02, -185143.16, 187500.00, 187500.00, 32939.12, 187500.00, 0.14, 0.82, 0.54
49, 4166.12, 6503.26, -187500.02, -185141.08, 187500.00, 187500.00, 33055.86, 187500.00, 0.00, 0.00, 0.00
50, 4194.28, 6511.91, -187500.02, -185144.19, 187500.00, 187500.00, 33092.52, 187500.00, 0.00, 0.00, 0.00
51, 4184.40, 6513.19, -187500.02, -185145.42, 187500.00, 187500.00, 32976.45, 187500.00, 0.00, 0.00, 0.00
52, 4156.40, 6507.44, -187500.02, -185140.88, 187500.00, 187500.00, 32925.77, 187500.00, 0.00, 0.00, 0.00
53, 4159.91, 6502.84, -187500.02, -185137.84, 187500.00, 187500.00, 33019.52, 187500.00, 0.00, 0.00, 0.00
54, 4196.05, 6516.18, -187500.02, -185141.30, 187500.00, 187500.00, 33097.59, 187500.00, 0.00, 0.00, 0.00
55, 4191.98, 6516.96, -187500.02, -185143.27, 187500.00, 187500.00, 33002.71, 187500.00, 0.00, 0.00, 0.00
56, 4152.60, 6498.81, -187500.02, -185139.09, 187500.00, 187500.00, 32918.44, 187500.00, 0.00, 0.00, 0.00
57, 4150.18, 6494.66, -187500.02, -185137.75, 187500.00, 187500.00, 32999.87, 187500.00, 0.00, 0.00, 0.00
58, 4185.25, 6510.26, -187500.02, -185140.41, 187500.00, 187500.00, 33089.57, 187500.00, 0.13, 0.83, 0.54
59, 4195.62, 6517.52, -187500.02, -185143.53, 187500.00, 187500.00, 33018.09, 187500.00, 0.00, 0.00, 0.00
60, 4161.56, 6505.05, -187500.02, -185141.53, 187500.00, 187500.00, 32910.28, 187500.00, 0.00, 0.00, 0.00
61, 4151.46, 6497.76, -187500.02, -185134.98, 187500.00, 187500.00, 32961.09, 187500.00, 0.00, 0.00, 0.00
62, 4183.71, 6506.82, -187500.02, -185136.91, 187500.00, 187500.00, 33071.53, 187500.00, 0.00, 0.00, 0.00
63, 4197.50, 6513.01, -187500.02, -185141.27, 187500.00, 187500.00, 33038.54, 187500.00, 0.00, 0.00, 0.00
64, 4165.94, 6502.68, -187500.02, -185138.52, 187500.00, 187500.00, 32926.06, 187500.00, 0.00, 0.00, 0.00
65, 4145.94, 6493.32, -187500.02, -185136.05, 187500.00, 187500.00, 32947.57, 187500.00, 0.00, 0.00, 0.00
66, 4180.94, 6510.08, -187500.02, -185138.69, 187500.00, 187500.00, 33056.84, 187500.00, 0.00, 0.00, 0.00
67, 4204.30, 6523.20, -187500.02, -185140.70, 187500.00, 187500.00, 33037.69, 187500.00, 0.00, 0.00, 0.00
68, 4177.05, 6513.75, -187500.02, -185138.78, 187500.00, 187500.00, 32915.02, 187500.00, 0.15, 0.83, 0.54
69, 4145.38, 6500.07, -187500.02, -185138.23, 187500.00, 187500.00, 32907.58, 187500.00, 0.00, 0.00, 0.00
70, 4171.13, 6511.98, -187500.02, -185138.73, 187500.00, 187500.00, 33023.52, 187500.00, 0.00, 0.00, 0.00
71, 4206.78, 6526.11, -187500.02, -185140.39, 187500.00, 187500.00, 33041.80, 187500.00, 0.00, 0.00, 0.00
72, 4182.48, 6512.74, -187500.02, -185140.55, 187500.00, 187500.00, 32925.15, 187500.00, 0.00, 0.00, 0.00
73, 4144.08, 6492.94, -187500.02, -185135.48, 187500.00, 187500.00, 32889.32, 187500.00, 0.00, 0.00, 0.00
74, 4161.31, 6496.49, -187500.02, -185135.09, 187500.00, 187500.00, 33003.76, 187500.00, 0.00, 0.00, 0.00
75, 4198.51, 6514.26, -187500.02, -185139.09, 187500.00, 187500.00, 33052.06, 187500.00, 0.00, 0.00, 0.00
76, 4189.05, 6514.68, -187500.02, -185139.53, 187500.00, 187500.00, 32946.34, 187500.00, 0.00, 0.00, 0.00
77, 4146.87, 6494.66, -187500.02, -185135.11, 187500.00, 187500.00, 32880.76, 187500.00, 0.00, 0.00, 0.00
78, 4155.12, 6499.33, -187500.02, -185130.80, 187500.00, 187500.00, 32979.95, 187500.00, 0.15, 0.82, 0.54
79, 4199.54, 6519.02, -187500.02, -185135.48, 187500.00, 187500.00, 33066.16, 187500.00, 0.00, 0.00, 0.00
80, 4194.77, 6514.59, -187500.02, -185138.91, 187500.00, 187500.00, 32977.65, 187500.00, 0.00, 0.00, 0.00
81, 4147.46, 6488.96, -187500.02, -185136.00, 187500.00, 187500.00, 32883.17, 187500.00, 0.00, 0.00, 0.00
82, 4161.18, 6499.08, -187500.02, -185132.39, 187500.00, 187500.00, 32971.46, 187500.00, 0.00, 0.00, 0.00
83, 4206.75, 6520.74, -187500.02, -185134.63, 187500.00, 187500.00, 33069.89, 187500.00, 0.00, 0.00, 0.00
84, 4215.58, 6529.93, -187500.02, -185138.84, 187500.00, 187500.00, 32991.44, 187500.00, 0.00, 0.00, 0.00
85, 4170.30, 6509.90, -187500.02, -185137.53, 187500.00, 187500.00, 32881.34, 187500.00, 0.00, 0.00, 0.00
86, 4141.44, 6482.12, -187500.02, -185133.88, 187500.00, 187500.00, 32937.82, 187500.00, 0.00, 0.00, 0.00
87, 4182.21, 6497.14, -187500.02, -185137.86, 187500.00, 187500.00, 33054.38, 187500.00, 0.00, 0.00, 0.00
88, 4225.55, 6534.33, -187500.02, -185140.13, 187500.00, 187500.00, 33026.04, 187500.00, 0.14, 0.82, 0.54
89, 4199.09, 6525.39, -187500.02, -185138.11, 187500.00, 187500.00, 32906.64, 187500.00, 0.00, 0.00, 0.00
90, 4183.42, 6518.84, -187500.02, -185136.30, 187500.00, 187500.00, 32923.92, 187500.00, 0.00, 0.00, 0.00
91, 4219.20, 6533.75, -187500.02, -185138.89, 187500.00, 187500.00, 33041.20, 187500.00, 0.00, 0.00, 0.00
92, 4249.76, 6549.06, -187500.02, -185143.53, 187500.00, 187500.00, 33046.02, 187500.00, 0.00, 0.00, 0.00
93, 4216.48, 6535.96, -187500.02, -185144.34, 187500.00, 187500.00, 32932.88, 187500.00, 0.00, 0.00, 0.00
94, 4188.00, 6522.48, -187500.02, -185142.11, 187500.00, 187500.00, 32919.16, 187500.00, 0.00, 0.00, 0.00
95, 4215.09, 6535.67, -187500.02, -185144.77, 187500.00, 187500.00, 33036.68, 187500.00, 0.00, 0.00, 0.00
96, 4247.21, 6552.06, -187500.02, -185149.08, 187500.00, 187500.00, 33054.52, 187500.00, 0.00, 0.00, 0.00
97, 4227.97, 6544.59, -187500.02, -185148.48, 187500.00, 187500.00, 32936.66, 187500.00, 0.00, 0.00, 0.00
98, 4187.08, 6524.12, -187500.02, -185145.59, 187500.00, 187500.00, 32894.35, 187500.00, 0.14, 0.82, 0.54
99, 4199.69, 6527.13, -187500.02, -185144.97, 187500.00, 187500.00, 32994.62, 187500.00, 0.00, 0.00, 0.00
100, 4238.70, 6549.33, -187500.02, -185148.72, 187500.00, 187500.00, 33045.91, 187500.00, 0.00, 0.00, 0.00
101, 4228.46, 6545.10, -187500.02, -185152.81, 187500.00, 187500.00, 32951.36, 187500.00, 0.00, 0.00, 0.00
102, 4183.51, 6521.55, -187500.02, -185152.02, 187500.00, 187500.00, 32873.45, 187500.00, 0.00, 0.00, 0.00
103, 4191.53, 6525.84, -187500.02, -185149.66, 187500.00, 187500.00, 32967.95, 187500.00, 0.00, 0.00, 0.00
104, 4229.91, 6543.09, -187500.02, -185151.98, 187500.00, 187500.00, 33045.76, 187500.00, 0.00, 0.00, 0.00
105, 4226.45, 6539.58, -187500.02, -185156.06, 187500.00, 187500.00, 32958.88, 187500.00, 0.00, 0.00, 0.00
106, 4191.60, 6525.39, -187500.02, -185154.58, 187500.00, 187500.00, 32866.81, 187500.00, 0.00, 0.00, 0.00
107, 4194.71, 6528.32, -187500.02, -185152.55, 187500.00, 187500.00, 32941.39, 187500.00, 0.14, 0.82, 0.54
108, 4239.10, 6549.84, -187500.02, -185156.17, 187500.00, 187500.00, 33043.97, 187500.00, 0.00, 0.00, 0.00
109, 4248.13, 6556.39, -187500.02, -185159.19, 187500.00, 187500.00, 32984.18, 187500.00, 0.00, 0.00, 0.00
110, 4208.16, 6540.72, -187500.02, -185161.20, 187500.00, 187500.00, 32875.64, 187500.00, 0.00, 0.00, 0.00
111, 4201.30, 6541.42, -187500.02, -185159.25, 187500.00, 187500.00, 32930.45, 187500.00, 0.00, 0.00, 0.00
112, 4236.84, 6553.91, -187500.02, -185161.59, 187500.00, 187500.00, 33049.58, 187500.00, 0.00, 0.00, 0.00
113, 4257.02, 6565.89, -187500.02, -185166.94, 187500.00, 187500.00, 33018.27, 187500.00, 0.00, 0.00, 0.00
114, 4228.19, 6554.74, -187500.02, -185167.34, 187500.00, 187500.00, 32907.67, 187500.00, 0.00, 0.00, 0.00
115, 4202.33, 6539.02, -187500.02, -185165.31, 187500.00, 187500.00, 32909.10, 187500.00, 0.00, 0.00, 0.00
116, 4231.03, 6551.65, -187500.02, -185168.80, 187500.00, 187500.00, 33016.72, 187500.00, 0.00, 0.00, 0.00
117, 4250.97, 6558.31, -187500.02, -185174.72, 187500.00, 187500.00, 33009.84, 187500.00, 0.14, 0.82, 0.54
118, 4218.71, 6542.89, -187500.02, -185176.48, 187500.00, 187500.00, 32881.20, 187500.00, 0.00, 0.00, 0.00
119, 4191.98, 6534.02, -187500.02, -185173.11, 187500.00, 187500.00, 32868.51, 187500.00, 0.00, 0.00, 0.00
120, 4225.73, 6555.14, -187500.02, -185173.38, 187500.00, 187500.00, 32996.52, 187500.00, 0.00, 0.00, 0.00
121, 4256.20, 6562.56, -187500.02, -185179.53, 187500.00, 187500.00, 33036.86, 187500.00, 0.00, 0.00, 0.00
122, 4238.23, 6552.03, -187500.02, -185181.41, 187500.00, 187500.00, 32924.83, 187500.00, 0.00, 0.00, 0.00
123, 4196.27, 6530.08, -187500.02, -185177.52, 187500.00, 187500.00, 32873.89, 187500.00, 0.00, 0.00, 0.00
124, 4208.36, 6534.49, -187500.02, -185178.19, 187500.00, 187500.00, 32977.83, 187500.00, 0.00, 0.00, 0.00
125, 4245.67, 6551.39, -187500.02, -185182.97, 187500.00, 187500.00, 33034.89, 187500.00, 0.00, 0.00, 0.00
126, 4237.71, 6550.49, -187500.02, -185186.23, 187500.00, 187500.00, 32938.96, 187500.00, 0.00, 0.00, 0.00
127, 4196.18, 6531.92, -187500.02, -185184.63, 187500.00, 187500.00, 32869.38, 187500.00, 0.14, 0.82, 0.53
128, 4196.85, 6528.25, -187500.02, -185183.34, 187500.00, 187500.00, 32951.81, 187500.00, 0.00, 0.00, 0.00
129, 4233.15, 6542.38, -187500.02, -185186.95, 187500.00, 187500.00, 33028.64, 187500.00, 0.00, 0.00, 0.00
130, 4235.50, 6548.57, -187500.02, -185189.63, 187500.00, 187500.00, 32955.57, 187500.00, 0.00, 0.00, 0.00
131, 4192.70, 6528.90, -187500.02, -185188.64, 187500.00, 187500.00, 32851.43, 187500.00, 0.00, 0.00, 0.00
132, 4188.94, 6525.14, -187500.02, -185186.47, 187500.00, 187500.00, 32915.74, 187500.00, 0.00, 0.00, 0.00
133, 4227.36, 6541.80, -187500.02, -185190.98, 187500.00, 187500.00, 33013.26, 187500.00, 0.00, 0.00, 0.00
134, 4238.70, 6548.30, -187500.02, -185195.34, 187500.00, 187500.00, 32968.64, 187500.00, 0.00, 0.00, 0.00
135, 4199.47, 6532.61, -187500.02, -185196.00, 187500.00, 187500.00, 32858.54, 187500.00, 0.00, 0.00, 0.00
136, 4182.26, 6522.13, -187500.02, -185192.33, 187500.00, 187500.00, 32894.12, 187500.00, 0.00, 0.00, 0.00
137, 4219.96, 6538.80, -187500.02, -185194.52, 187500.00, 187500.00, 33002.55, 187500.00, 0.14, 0.83, 0.53
138, 4242.92, 6551.61, -187500.02, -185198.20, 187500.00, 187500.00, 32986.99, 187500.00, 0.00, 0.00, 0.00
139, 4209.30, 6536.86, -187500.02, -185198.92, 187500.00, 187500.00, 32874.74, 187500.00, 0.00, 0.00, 0.00
140, 4184.22, 6525.97, -187500.02, -185198.72, 187500.00, 187500.00, 32883.73, 187500.00, 0.00, 0.00, 0.00
141, 4216.66, 6538.35, -187500.02, -185200.77, 187500.00, 187500.00, 33006.60, 187500.00, 0.00, 0.00, 0.00
142, 4248.53, 6556.35, -187500.02, -185204.97, 187500.00, 187500.00, 33026.36, 187500.00, 0.00, 0.00, 0.00
143, 4224.77, 6547.47, -187500.02, -185206.22, 187500.00, 187500.00, 32915.00, 187500.00, 0.00, 0.00, 0.00
144, 4188.67, 6528.61, -187500.02, -185205.25, 187500.00, 187500.00, 32890.43, 187500.00, 0.00, 0.00, 0.00
145, 4206.62, 6535.58, -187500.02, -185204.33, 187500.00, 187500.00, 33003.67, 187500.00, 0.00, 0.00, 0.00
146, 4239.08, 6547.63, -187500.02, -185208.31, 187500.00, 187500.00, 33041.64, 187500.00, 0.00, 0.00, 0.00
147, 4223.79, 6539.94, -187500.02, -185210.59, 187500.00, 187500.00, 32923.31, 187500.00, 0.14, 0.82, 0.54
148, 4190.82, 6526.49, -187500.02, -185210.28, 187500.00, 187500.00, 32869.56, 187500.00, 0.00, 0.00, 0.00
149, 4207.92, 6535.09, -187500.02, -185210.70, 187500.00, 187500.00, 32972.82, 187500.00, 0.00, 0.00, 0.00
150, 4252.04, 6556.08, -187500.02, -185214.86, 187500.00, 187500.00, 33043.10, 187500.00, 0.00, 0.00, 0.00
151, 4246.27, 6553.71, -187500.02, -185217.88, 187500.00, 187500.00, 32949.40, 187500.00, 0.00, 0.00, 0.00
152, 4201.44, 6530.08, -187500.02, -185216.63, 187500.00, 187500.00, 32867.30, 187500.00, 0.00, 0.00, 0.00
153, 4196.14, 6526.71, -187500.02, -185218.33, 187500.00, 187500.00, 32949.91, 187500.00, 0.00, 0.00, 0.00
154, 4234.87, 6545.06, -187500.02, -185222.34, 187500.00, 187500.00, 33040.68, 187500.00, 0.00, 0.00, 0.00
155, 4242.36, 6547.59, -187500.02, -185225.48, 187500.00, 187500.00, 32966.43, 187500.00, 0.00, 0.00, 0.00
156, 4200.72, 6529.41, -187500.02, -185223.73, 187500.00, 187500.00, 32875.86, 187500.00, 0.00, 0.00, 0.00
157, 4190.48, 6524.09, -187500.02, -185223.95, 187500.00, 187500.00, 32942.09, 187500.00, 0.14, 0.82, 0.53
158, 4225.40, 6535.38, -187500.02, -185228.19, 187500.00, 187500.00, 33049.69, 187500.00, 0.00, 0.00, 0.00
159, 4232.55, 6538.06, -187500.02, -185234.05, 187500.00, 187500.00, 32995.00, 187500.00, 0.00, 0.00, 0.00
160, 4207.56, 6537.19, -187500.02, -185235.50, 187500.00, 187500.00, 32904.98, 187500.00, 0.00, 0.00, 0.00
161, 4187.44, 6527.25, -187500.02, -185233.53, 187500.00, 187500.00, 32932.97, 187500.00, 0.00, 0.00, 0.00
162, 4223.67, 6546.13, -187500.02, -185234.05, 187500.00, 187500.00, 33044.62, 187500.00, 0.00, 0.00, 0.00
163, 4249.58, 6562.02, -187500.02, -185240.66, 187500.00, 187500.00, 33027.99, 187500.00, 0.00, 0.00, 0.00
164, 4219.99, 6547.43, -187500.02, -185240.95, 187500.00, 187500.00, 32914.69, 187500.00, 0.00, 0.00, 0.00
165, 4187.89, 6524.63, -187500.02, -185238.63, 187500.00, 187500.00, 32903.51, 187500.00, 0.00, 0.00, 0.00
166, 4214.33, 6533.48, -187500.02, -185241.44, 187500.00, 187500.00, 33014.69, 187500.00, 0.00, 0.00, 0.00
167, 4244.57, 6548.64, -187500.02, -185248.61, 187500.00, 187500.00, 33027.27, 187500.00, 0.15, 0.82, 0.54
168, 4216.79, 6534.47, -187500.02, -185252.75, 187500.00, 187500.00, 32911.47, 187500.00, 0.00, 0.00, 0.00
169, 4180.20, 6516.72, -187500.02, -185249.22, 187500.00, 187500.00, 32874.45, 187500.00, 0.00, 0.00, 0.00
170, 4197.99, 6524.68, -187500.02, -185250.05, 187500.00, 187500.00, 32973.65, 187500.00, 0.00, 0.00, 0.00
171, 4237.76, 6544.23, -187500.02, -185253.86, 187500.00, 187500.00, 33013.21, 187500.00, 0.00, 0.00, 0.00
172, 4226.07, 6542.78, -187500.02, -185255.94, 187500.00, 187500.00, 32900.49, 187500.00, 0.00, 0.00, 0.00
173, 4181.43, 6520.05, -187500.02, -185251.98, 187500.00, 187500.00, 32833.55, 187500.00, 0.00, 0.00, 0.00
174, 4192.00, 6519.47, -187500.02, -185251.44, 187500.00, 187500.00, 32925.66, 187500.00, 0.00, 0.00, 0.00
175, 4232.08, 6534.82, -187500.02, -185255.70, 187500.00, 187500.00, 32986.95, 187500.00, 0.00, 0.00, 0.00
176, 4230.22, 6538.35, -187500.02, -185257.98, 187500.00, 187500.00, 32903.42, 187500.00, 0.00, 0.00, 0.00
177, 4189.36, 6519.76, -187500.02, -185255.55, 187500.00, 187500.00, 32820.56, 187500.00, 0.14, 0.82, 0.54
178, 4187.82, 6520.32, -187500.02, -185253.06, 187500.00, 187500.00, 32894.19, 187500.00, 0.00, 0.00, 0.00
179, 4228.37, 6538.38, -187500.02, -185256.28, 187500.00, 187500.00, 32981.36, 187500.00, 0.00, 0.00, 0.00
180, 4227.68, 6534.11, -187500.02, -185258.88, 187500.00, 187500.00, 32902.55, 187500.00, 0.00, 0.00, 0.00
181, 4191.40, 6513.10, -187500.02, -185255.19, 187500.00, 187500.00, 32783.73, 187500.00, 0.00, 0.00, 0.00
182, 4190.06, 6510.84, -187500.02, -185251.41, 187500.00, 187500.00, 32828.97, 187500.00, 0.00, 0.00, 0.00
183, 4230.87, 6539.14, -187500.02, -185251.97, 187500.00, 187500.00, 32940.73, 187500.00, 0.00, 0.00, 0.00
184, 4237.87, 6547.38, -187500.02, -185255.25, 187500.00, 187500.00, 32913.75, 187500.00, 0.00, 0.00, 0.00
185, 4204.21, 6533.30, -187500.02, -185251.97, 187500.00, 187500.00, 32810.19, 187500.00, 0.00, 0.00, 0.00
186, 4187.85, 6524.59, -187500.02, -185248.59, 187500.00, 187500.00, 32827.58, 187500.00, 0.00, 0.00, 0.00
187, 4229.75, 6548.81, -187500.02, -185248.39, 187500.00, 187500.00, 32934.40, 187500.00, 0.14, 0.83, 0.54
188, 4263.13, 6572.49, -187500.02, -185248.70, 187500.00, 187500.00, 32925.55, 187500.00, 0.00, 0.00, 0.00
189, 4224.79, 6562.49, -187500.02, -185246.38, 187500.00, 187500.00, 32810.30, 187500.00, 0.00, 0.00, 0.00
190, 4191.47, 6547.94, -187500.02, -185242.13, 187500.00, 187500.00, 32794.77, 187500.00, 0.00, 0.00, 0.00
191, 4219.43, 6558.85, -187500.02, -185238.09, 187500.00, 187500.00, 32894.52, 187500.00, 0.00, 0.00, 0.00
192, 4257.65, 6578.59, -187500.02, -185239.97, 187500.00, 187500.00, 32910.73, 187500.00, 0.00, 0.00, 0.00
193, 4233.06, 6568.71, -187500.02, -185236.80, 187500.00, 187500.00, 32798.46, 187500.00, 0.00, 0.00, 0.00
194, 4189.45, 6547.70, -187500.02, -185226.55, 187500.00, 187500.00, 32741.75, 187500.00, 0.00, 0.00, 0.00
195, 4206.62, 6550.83, -187500.02, -185220.66, 187500.00, 187500.00, 32817.90, 187500.00, 0.00, 0.00, 0.00
196, 4241.33, 6563.54, -187500.02, -185216.31, 187500.00, 187500.00, 32859.81, 187500.00, 0.14, 0.82, 0.54
197, 4230.83, 6562.90, -187500.02, -185210.53, 187500.00, 187500.00, 32780.53, 187500.00, 0.00, 0.00, 0.00
198, 4191.98, 6548.17, -187500.02, -185201.20, 187500.00, 187500.00, 32734.71, 187500.00, 0.00, 0.00, 0.00
199, 4199.20, 6549.75, -187500.02, -185196.53, 187500.00, 187500.00, 32842.38, 187500.00, 0.00, 0.00, 0.00
200, 4241.33, 6569.65, -187500.02, -185196.06, 187500.00, 187500.00, 32939.38, 187500.00, 0.00, 0.00, 0.00
201, 4240.37, 6572.60, -187500.02, -185193.67, 187500.00, 187500.00, 32876.09, 187500.00, 0.00, 0.00, 0.00
202, 4204.14, 6553.73, -187500.02, -185188.64, 187500.00, 187500.00, 32809.99, 187500.00, 0.00, 0.00, 0.00
203, 4203.04, 6549.75, -187500.02, -185183.86, 187500.00, 187500.00, 32902.35, 187500.00, 0.00, 0.00, 0.00
204, 4247.75, 6570.92, -187500.02, -185183.69, 187500.00, 187500.00, 33011.49, 187500.00, 0.00, 0.00, 0.00
205, 4266.57, 6581.81, -187500.02, -185188.16, 187500.00, 187500.00, 32956.77, 187500.00, 0.00, 0.00, 0.00
206, 4225.13, 6558.76, -187500.02, -185183.61, 187500.00, 187500.00, 32849.80, 187500.00, 0.14, 0.82, 0.54
207, 4214.35, 6549.58, -187500.02, -185177.73, 187500.00, 187500.00, 32894.01, 187500.00, 0.00, 0.00, 0.00
208, 4259.26, 6572.15, -187500.02, -185177.80, 187500.00, 187500.00, 33001.14, 187500.00, 0.00, 0.00, 0.00
209, 4283.04, 6586.39, -187500.02, -185180.33, 187500.00, 187500.00, 32966.41, 187500.00, 0.00, 0.00, 0.00
210, 4246.54, 6567.61, -187500.02, -185178.25, 187500.00, 187500.00, 32842.96, 187500.00, 0.00, 0.00, 0.00
211, 4225.15, 6555.86, -187500.02, -185172.44, 187500.00, 187500.00, 32857.98, 187500.00, 0.00, 0.00, 0.00
212, 4261.09, 6570.92, -187500.02, -185170.27, 187500.00, 187500.00, 32973.16, 187500.00, 0.00, 0.00, 0.00
213, 4287.20, 6582.72, -187500.02, -185172.89, 187500.00, 187500.00, 32970.63, 187500.00, 0.00, 0.00, 0.00
214, 4259.44, 6570.72, -187500.02, -185170.83, 187500.00, 187500.00, 32850.29, 187500.00, 0.00, 0.00, 0.00
215, 4232.66, 6558.14, -187500.02, -185162.73, 187500.00, 187500.00, 32830.75, 187500.00, 0.00, 0.00, 0.00
216, 4256.62, 6565.44, -187500.02, -185159.72, 187500.00, 187500.00, 32943.07, 187500.00, 0.14, 0.82, 0.54
217, 4292.54, 6578.52, -187500.02, -185161.38, 187500.00, 187500.00, 32963.91, 187500.00, 0.00, 0.00, 0.00
218, 4275.62, 6572.51, -187500.02, -185161.31, 187500.00, 187500.00, 32852.01, 187500.00, 0.00, 0.00, 0.00
219, 4242.63, 6560.33, -187500.02, -185156.80, 187500.00, 187500.00, 32810.46, 187500.00, 0.00, 0.00, 0.00
220, 4260.67, 6565.80, -187500.02, -185152.09, 187500.00, 187500.00, 32910.91, 187500.00, 0.00, 0.00, 0.00
221, 4296.56, 6578.57, -187500.02, -185151.92, 187500.00, 187500.00, 32960.86, 187500.00, 0.00, 0.00, 0.00
222, 4283.71, 6572.91, -187500.02, -185152.33, 187500.00, 187500.00, 32858.83, 187500.00, 0.00, 0.00, 0.00
223, 4243.34, 6556.79, -187500.02, -185145.11, 187500.00, 187500.00, 32783.50, 187500.00, 0.00, 0.00, 0.00
224, 4247.23, 6558.20, -187500.02, -185139.94, 187500.00, 187500.00, 32856.30, 187500.00, 0.00, 0.00, 0.00
225, 4283.87, 6569.80, -187500.02, -185139.27, 187500.00, 187500.00, 32928.61, 187500.00, 0.00, 0.00, 0.00
226, 4276.69, 6560.88, -187500.02, -185137.81, 187500.00, 187500.00, 32859.59, 187500.00, 0.13, 0.82, 0.53
227, 4227.25, 6537.17, -187500.02, -185131.16, 187500.00, 187500.00, 32765.82, 187500.00, 0.00, 0.00, 0.00
228, 4238.52, 6549.66, -187500.02, -185126.34, 187500.00, 187500.00, 32849.82, 187500.00, 0.00, 0.00, 0.00
229, 4278.82, 6568.10, -187500.02, -185127.13, 187500.00, 187500.00, 32955.10, 187500.00, 0.00, 0.00, 0.00
230, 4290.60, 6578.14, -187500.02, -185126.97, 187500.00, 187500.00, 32904.36, 187500.00, 0.00, 0.00, 0.00
231, 4254.86, 6566.25, -187500.02, -185120.98, 187500.00, 187500.00, 32789.07, 187500.00, 0.00, 0.00, 0.00
232, 4233.62, 6549.93, -187500.02, -185115.84, 187500.00, 187500.00, 32823.98, 187500.00, 0.00, 0.00, 0.00
233, 4278.01, 6571.32, -187500.02, -185116.56, 187500.00, 187500.00, 32945.55, 187500.00, 0.00, 0.00, 0.00
234, 4301.17, 6587.93, -187500.02, -185119.64, 187500.00, 187500.00, 32925.79, 187500.00, 0.00, 0.00, 0.00
235, 4268.04, 6574.77, -187500.02, -185115.63, 187500.00, 187500.00, 32820.25, 187500.00, 0.00, 0.00, 0.00
236, 4240.77, 6559.48, -187500.02, -185109.92, 187500.00, 187500.00, 32831.52, 187500.00, 0.14, 0.83, 0.54
237, 4267.95, 6567.14, -187500.02, -185111.20, 187500.00, 187500.00, 32941.06, 187500.00, 0.00, 0.00, 0.00
238, 4296.83, 6582.10, -187500.02, -185114.48, 187500.00, 187500.00, 32923.16, 187500.00, 0.00, 0.00, 0.00
239, 4273.16, 6571.46, -187500.02, -185110.86, 187500.00, 187500.00, 32803.51, 187500.00, 0.00, 0.00, 0.00
240, 4236.84, 6553.17, -187500.02, -185104.33, 187500.00, 187500.00, 32793.47, 187500.00, 0.00, 0.00, 0.00
241, 4261.05, 6566.03, -187500.02, -185102.48, 187500.00, 187500.00, 32906.26, 187500.00, 0.00, 0.00, 0.00
242, 4299.54, 6585.45, -187500.02, -185104.31, 187500.00, 187500.00, 32940.93, 187500.00, 0.00, 0.00, 0.00
243, 4279.67, 6577.40, -187500.02, -185104.17, 187500.00, 187500.00, 32834.02, 187500.00, 0.00, 0.00, 0.00
244, 4237.02, 6554.65, -187500.02, -185099.42, 187500.00, 187500.00, 32773.04, 187500.00, 0.00, 0.00, 0.00
245, 4249.07, 6562.18, -187500.02, -185097.00, 187500.00, 187500.00, 32871.99, 187500.00, 0.00, 0.00, 0.00
246, 4292.23, 6583.35, -187500.02, -185099.27, 187500.00, 187500.00, 32932.75, 187500.00, 0.13, 0.83, 0.53
247, 4283.85, 6580.29, -187500.02, -185100.00, 187500.00, 187500.00, 32841.17, 187500.00, 0.00, 0.00, 0.00
248, 4243.61, 6565.11, -187500.02, -185094.50, 187500.00, 187500.00, 32780.38, 187500.00, 0.00, 0.00, 0.00
249, 4246.59, 6564.04, -187500.02, -185088.08, 187500.00, 187500.00, 32870.09, 187500.00, 0.00, 0.00, 0.00
250, 4285.86, 6580.02, -187500.02, -185090.91, 187500.00, 187500.00, 32951.59, 187500.00, 0.00, 0.00, 0.00
251, 4280.02, 6575.41, -187500.02, -185094.31, 187500.00, 187500.00, 32868.48, 187500.00, 0.00, 0.00, 0.00
252, 4251.79, 6572.51, -187500.02, -185090.52, 187500.00, 187500.00, 32788.20, 187500.00, 0.00, 0.00, 0.00
253, 4244.62, 6567.14, -187500.02, -185086.61, 187500.00, 187500.00, 32852.17, 187500.00, 0.00, 0.00, 0.00
254, 4282.77, 6583.80, -187500.02, -185089.41, 187500.00, 187500.00, 32947.66, 187500.00, 0.00, 0.00, 0.00
255, 4290.44, 6584.04, -187500.02, -185092.00, 187500.00, 187500.00, 32901.12, 187500.00, 0.00, 0.00, 0.00
0, 4251.73, 6564.33, -187500.02, -185090.03, 187500.00, 187500.00, 32794.55, 187500.00, 0.14, 0.83, 0.54
1, 4234.85, 6556.37, -187500.02, -185086.91, 187500.00, 187500.00, 32825.88, 187500.00, 0.00, 0.00, 0.00
2, 4269.76, 6567.03, -187500.02, -185087.28, 187500.00, 187500.00, 32931.36, 187500.00, 0.00, 0.00, 0.00
3, 4291.04, 6574.39, -187500.02, -185090.45, 187500.00, 187500.00, 32906.13, 187500.00, 0.00, 0.00, 0.00
4, 4258.92, 6563.70, -187500.02, -185090.59, 187500.00, 187500.00, 32800.71, 187500.00, 0.00, 0.00, 0.00
5, 4233.26, 6554.07, -187500.02, -185087.33, 187500.00, 187500.00, 32807.84, 187500.00, 0.00, 0.00, 0.00
6, 4261.54, 6562.83, -187500.02, -185086.88, 187500.00, 187500.00, 32908.20, 187500.00, 0.00, 0.00, 0.00
7, 4292.14, 6579.66, -187500.02, -185090.52, 187500.00, 187500.00, 32910.42, 187500.00, 0.00, 0.00, 0.00
8, 4269.61, 6574.43, -187500.02, -185089.73, 187500.00, 187500.00, 32800.16, 187500.00, 0.00, 0.00, 0.00
9, 4233.33, 6558.07, -187500.02, -185085.95, 187500.00, 187500.00, 32782.09, 187500.00, 0.00, 0.00, 0.00
10, 4247.93, 6556.93, -187500.02, -185086.03, 187500.00, 187500.00, 32882.84, 187500.00, 0.14, 0.82, 0.54
11, 4289.88, 6580.78, -187500.02, -185092.20, 187500.00, 187500.00, 32914.37, 187500.00, 0.00, 0.00, 0.00
12, 4276.92, 6578.10, -187500.02, -185092.38, 187500.00, 187500.00, 32812.41, 187500.00, 0.00, 0.00, 0.00
13, 4231.94, 6546.60, -187500.02, -185089.94, 187500.00, 187500.00, 32761.64, 187500.00, 0.00, 0.00, 0.00
14, 4245.67, 6551.43, -187500.02, -185089.97, 187500.00, 187500.00, 32854.22, 187500.00, 0.00, 0.00, 0.00
15, 4295.36, 6586.14, -187500.02, -185091.45, 187500.00, 187500.00, 32926.15, 187500.00, 0.00, 0.00, 0.00
16, 4285.34, 6582.10, -187500.02, -185093.27, 187500.00, 187500.00, 32839.65, 187500.00, 0.00, 0.00, 0.00
17, 4241.60, 6559.86, -187500.02, -185090.25, 187500.00, 187500.00, 32757.53, 187500.00, 0.00, 0.00, 0.00
18, 4239.25, 6556.62, -187500.02, -185088.36, 187500.00, 187500.00, 32838.36, 187500.00, 0.00, 0.00, 0.00
19, 4278.32, 6574.09, -187500.02, -185092.11, 187500.00, 187500.00, 32926.89, 187500.00, 0.15, 0.81, 0.54
20, 4287.27, 6579.35, -187500.02, -185096.28, 187500.00, 187500.00, 32864.11, 187500.00, 0.00, 0.00, 0.00
21, 4253.22, 6569.22, -187500.02, -185092.16, 187500.00, 187500.00, 32770.63, 187500.00, 0.00, 0.00, 0.00
22, 4241.60, 6563.63, -187500.02, -185087.72, 187500.00, 187500.00, 32824.79, 187500.00, 0.00, 0.00, 0.00
23, 4277.77, 6576.80, -187500.02, -185091.69, 187500.00, 187500.00, 32919.36, 187500.00, 0.00, 0.00, 0.00
24, 4293.84, 6583.84, -187500.02, -185095.28, 187500.00, 187500.00, 32875.23, 187500.00, 0.00, 0.00, 0.00
25, 4268.18, 6576.11, -187500.02, -185094.08, 187500.00, 187500.00, 32781.80, 187500.00, 0.00, 0.00, 0.00
26, 4247.95, 6566.12, -187500.02, -185091.38, 187500.00, 187500.00, 32809.21, 187500.00, 0.00, 0.00, 0.00
27, 4267.48, 6570.25, -187500.02, -185094.88, 187500.00, 187500.00, 32908.90, 187500.00, 0.00, 0.00, 0.00
28, 4279.20, 6573.78, -187500.02, -185097.94, 187500.00, 187500.00, 32875.10, 187500.00, 0.00, 0.00, 0.00
29, 4245.80, 6562.38, -187500.02, -185096.47, 187500.00, 187500.00, 32747.47, 187500.00, 0.14, 0.82, 0.54
30, 4216.68, 6549.46, -187500.02, -185092.38, 187500.00, 187500.00, 32727.65, 187500.00, 0.00, 0.00, 0.00
31, 4250.77, 6561.71, -187500.02, -185093.94, 187500.00, 187500.00, 32833.21, 187500.00, 0.00, 0.00, 0.00
32, 4285.57, 6573.94, -187500.02, -185099.34, 187500.00, 187500.00, 32855.92, 187500.00, 0.00, 0.00, 0.00
33, 4246.85, 6544.95, -187500.02, -185099.81, 187500.00, 187500.00, 32755.50, 187500.00, 0.00, 0.00, 0.00
34, 4200.76, 6514.68, -187500.02, -185096.53, 187500.00, 187500.00, 32725.52, 187500.00, 0.00, 0.00, 0.00
35, 4214.22, 6515.89, -187500.02, -185094.47, 187500.00, 187500.00, 32831.54, 187500.00, 0.00, 0.00, 0.00
36, 4247.37, 6527.69, -187500.02, -185097.50, 187500.00, 187500.00, 32879.71, 187500.00, 0.00, 0.00, 0.00
37, 4228.15, 6518.62, -187500.02, -185101.27, 187500.00, 187500.00, 32784.35, 187500.00, 0.00, 0.00, 0.00
38, 4165.40, 6476.33, -187500.02, -185100.11, 187500.00, 187500.00, 32716.29, 187500.00, 0.00, 0.00, 0.00
39, 4159.17, 6459.63, -187500.02, -185098.61, 187500.00, 187500.00, 32795.80, 187500.00, 0.13, 0.82, 0.54
40, 4200.63, 6473.20, -187500.02, -185101.39, 187500.00, 187500.00, 32871.84, 187500.00, 0.00, 0.00, 0.00
41, 4202.37, 6476.71, -187500.02, -185103.89, 187500.00, 187500.00, 32791.10, 187500.00, 0.00, 0.00, 0.00
42, 4175.10, 6473.85, -187500.02, -185102.44, 187500.00, 187500.00, 32718.13, 187500.00, 0.00, 0.00, 0.00
43, 4173.32, 6471.63, -187500.02, -185100.91, 187500.00, 187500.00, 32790.52, 187500.00, 0.00, 0.00, 0.00
44, 4214.18, 6490.14, -187500.02, -185105.92, 187500.00, 187500.00, 32872.29, 187500.00, 0.00, 0.00, 0.00
45, 4234.96, 6507.46, -187500.02, -185111.31, 187500.00, 187500.00, 32817.12, 187500.00, 0.00, 0.00, 0.00
46, 4201.81, 6498.26, -187500.02, -185109.30, 187500.00, 187500.00, 32725.43, 187500.00, 0.00, 0.00, 0.00
47, 4190.66, 6489.58, -187500.02, -185104.61, 187500.00, 187500.00, 32768.80, 187500.00, 0.00, 0.00, 0.00
48, 4230.00, 6508.11, -187500.02, -185107.02, 187500.00, 187500.00, 32868.20, 187500.00, 0.00, 0.00, 0.00
49, 4241.27, 6511.76, -187500.02, -185112.09, 187500.00, 187500.00, 32828.74, 187500.00, 0.13, 0.83, 0.53
50, 4207.54, 6496.20, -187500.02, -185114.23, 187500.00, 187500.00, 32719.78, 187500.00, 0.00, 0.00, 0.00
51, 4191.42, 6491.17, -187500.02, -185112.31, 187500.00, 187500.00, 32738.53, 187500.00, 0.00, 0.00, 0.00
52, 4226.22, 6509.57, -187500.02, -185115.52, 187500.00, 187500.00, 32851.45, 187500.00, 0.00, 0.00, 0.00
53, 4248.35, 6515.06, -187500.02, -185121.77, 187500.00, 187500.00, 32840.43, 187500.00, 0.00, 0.00, 0.00
54, 4215.05, 6497.96, -187500.02, -185122.45, 187500.00, 187500.00, 32727.24, 187500.00, 0.00, 0.00, 0.00
55, 4186.75, 6483.48, -187500.02, -185120.66, 187500.00, 187500.00, 32725.48, 187500.00, 0.00, 0.00, 0.00
56, 4208.54, 6488.35, -187500.02, -185123.09, 187500.00, 187500.00, 32829.01, 187500.00, 0.00, 0.00, 0.00
57, 4246.29, 6511.06, -187500.02, -185127.44, 187500.00, 187500.00, 32848.23, 187500.00, 0.00, 0.00, 0.00
58, 4209.35, 6487.88, -187500.02, -185129.23, 187500.00, 187500.00, 32728.43, 187500.00, 0.00, 0.00, 0.00
59, 4165.65, 6464.24, -187500.02, -185129.23, 187500.00, 187500.00, 32694.21, 187500.00, 0.14, 0.84, 0.53
60, 4193.50, 6481.00, -187500.02, -185130.98, 187500.00, 187500.00, 32815.18, 187500.00, 0.00, 0.00, 0.00
61, 4235.86, 6503.44, -187500.02, -185137.45, 187500.00, 187500.00, 32862.34, 187500.00, 0.00, 0.00, 0.00
62, 4228.68, 6505.34, -187500.02, -185140.88, 187500.00, 187500.00, 32769.63, 187500.00, 0.00, 0.00, 0.00
63, 4187.60, 6485.43, -187500.02, -185141.45, 187500.00, 187500.00, 32704.36, 187500.00, 0.00, 0.00, 0.00
64, 4185.05, 6477.29, -187500.02, -185140.47, 187500.00, 187500.00, 32781.61, 187500.00, 0.00, 0.00, 0.00
65, 4238.09, 6511.02, -187500.02, -185146.44, 187500.00, 187500.00, 32868.48, 187500.00, 0.00, 0.00, 0.00
66, 4247.70, 6524.94, -187500.02, -185149.16, 187500.00, 187500.00, 32803.89, 187500.00, 0.00, 0.00, 0.00
67, 4217.42, 6522.37, -187500.02, -185149.27, 187500.00, 187500.00, 32744.88, 187500.00, 0.00, 0.00, 0.00
68, 4232.06, 6543.05, -187500.02, -185150.38, 187500.00, 187500.00, 32832.66, 187500.00, 0.00, 0.00, 0.00
69, 4286.46, 6576.24, -187500.02, -185153.94, 187500.00, 187500.00, 32936.99, 187500.00, 0.14, 0.83, 0.54
70, 4297.37, 6584.82, -187500.02, -185157.98, 187500.00, 187500.00, 32878.92, 187500.00, 0.00, 0.00, 0.00
71, 4261.25, 6573.58, -187500.02, -185160.14, 187500.00, 187500.00, 32775.08, 187500.00, 0.00, 0.00, 0.00
72, 4244.15, 6566.43, -187500.02, -185156.45, 187500.00, 187500.00, 32815.89, 187500.00, 0.00, 0.00, 0.00
73, 4283.02, 6587.30, -187500.02, -185158.94, 187500.00, 187500.00, 32919.27, 187500.00, 0.00, 0.00, 0.00
74, 4299.65, 6595.84, -187500.02, -185165.16, 187500.00, 187500.00, 32889.41, 187500.00, 0.00, 0.00, 0.00
75, 4255.08, 6579.19, -187500.02, -185164.95, 187500.00, 187500.00, 32774.43, 187500.00, 0.00, 0.00, 0.00
76, 4226.47, 6566.07, -187500.02, -185161.53, 187500.00, 187500.00, 32786.48, 187500.00, 0.00, 0.00, 0.00
77, 4250.99, 6575.17, -187500.02, -185163.91, 187500.00, 187500.00, 32898.93, 187500.00, 0.00, 0.00, 0.00
78, 4275.84, 6585.96, -187500.02, -185169.83, 187500.00, 187500.00, 32895.87, 187500.00, 0.00, 0.00, 0.00
79, 4242.99, 6571.59, -187500.02, -185170.50, 187500.00, 187500.00, 32775.46, 187500.00, 0.14, 0.81, 0.54
80, 4207.27, 6556.28, -187500.02, -185168.23, 187500.00, 187500.00, 32759.14, 187500.00, 0.00, 0.00, 0.00
81, 4225.24, 6560.30, -187500.02, -185171.44, 187500.00, 187500.00, 32860.80, 187500.00, 0.00, 0.00, 0.00
82, 4259.75, 6578.12, -187500.02, -185177.64, 187500.00, 187500.00, 32882.14, 187500.00, 0.00, 0.00, 0.00
83, 4241.04, 6572.78, -187500.02, -185177.58, 187500.00, 187500.00, 32775.66, 187500.00, 0.00, 0.00, 0.00
84, 4202.15, 6551.72, -187500.02, -185172.31, 187500.00, 187500.00, 32737.97, 187500.00, 0.00, 0.00, 0.00
85, 4212.36, 6547.18, -187500.02, -185172.59, 187500.00, 187500.00, 32825.75, 187500.00, 0.00, 0.00, 0.00
86, 4245.56, 6555.88, -187500.02, -185176.31, 187500.00, 187500.00, 32875.04, 187500.00, 0.00, 0.00, 0.00
87, 4230.04, 6550.94, -187500.02, -185180.78, 187500.00, 187500.00, 32775.43, 187500.00, 0.00, 0.00, 0.00
88, 4202.22, 6546.31, -187500.02, -185179.55, 187500.00, 187500.00, 32719.94, 187500.00, 0.00, 0.00, 0.00
89, 4206.46, 6549.17, -187500.02, -185178.23, 187500.00, 187500.00, 32804.16, 187500.00, 0.14, 0.81, 0.53
90, 4238.47, 6556.21, -187500.02, -185182.03, 187500.00, 187500.00, 32863.84, 187500.00, 0.00, 0.00, 0.00
91, 4231.83, 6547.23, -187500.02, -185183.89, 187500.00, 187500.00, 32781.20, 187500.00, 0.00, 0.00, 0.00
92, 4197.08, 6535.05, -187500.02, -185184.20, 187500.00, 187500.00, 32691.50, 187500.00, 0.00, 0.00, 0.00
93, 4200.79, 6540.63, -187500.02, -185181.94, 187500.00, 187500.00, 32759.77, 187500.00, 0.00, 0.00, 0.00
94, 4241.80, 6556.64, -187500.02, -185184.22, 187500.00, 187500.00, 32859.10, 187500.00, 0.00, 0.00, 0.00
95, 4251.17, 6558.14, -187500.02, -185188.72, 187500.00, 187500.00, 32809.19, 187500.00, 0.00, 0.00, 0.00
96, 4204.25, 6529.61, -187500.02, -185185.88, 187500.00, 187500.00, 32703.44, 187500.00, 0.00, 0.00, 0.00
97, 4184.51, 6514.42, -187500.02, -185183.55, 187500.00, 187500.00, 32739.69, 187500.00, 0.00, 0.00, 0.00
98, 4223.56, 6529.64, -187500.02, -185188.89, 187500.00, 187500.00, 32846.00, 187500.00, 0.00, 0.00, 0.00
99, 4240.91, 6539.07, -187500.02, -185194.05, 187500.00, 187500.00, 32820.59, 187500.00, 0.14, 0.82, 0.54
100, 4211.27, 6527.47, -187500.02, -185192.47, 187500.00, 187500.00, 32712.54, 187500.00, 0.00, 0.00, 0.00
101, 4190.71, 6515.04, -187500.02, -185189.53, 187500.00, 187500.00, 32722.01, 187500.00, 0.00, 0.00, 0.00
102, 4216.59, 6520.45, -187500.02, -185188.94, 187500.00, 187500.00, 32823.78, 187500.00, 0.00, 0.00, 0.00
103, 4254.36, 6545.69, -187500.02, -185194.34, 187500.00, 187500.00, 32828.36, 187500.00, 0.00, 0.00, 0.00
104, 4221.84, 6530.84, -187500.02, -185197.52, 187500.00, 187500.00, 32708.96, 187500.00, 0.00, 0.00, 0.00
105, 4191.94, 6513.81, -187500.02, -185191.70, 187500.00, 187500.00, 32694.10, 187500.00, 0.00, 0.00, 0.00
106, 4218.76, 6525.50, -187500.02, -185193.11, 187500.00, 187500.00, 32809.83, 187500.00, 0.00, 0.00, 0.00
107, 4252.13, 6537.84, -187500.02, -185198.20, 187500.00, 187500.00, 32841.26, 187500.00, 0.00, 0.00, 0.00
108, 4232.59, 6527.16, -187500.02, -185200.22, 187500.00, 187500.00, 32735.54, 187500.00, 0.13, 0.83, 0.54
109, 4192.25, 6504.74, -187500.02, -185199.59, 187500.00, 187500.00, 32688.13, 187500.00, 0.00, 0.00, 0.00
110, 4203.04, 6506.84, -187500.02, -185199.16, 187500.00, 187500.00, 32774.59, 187500.00, 0.00, 0.00, 0.00
111, 4234.52, 6517.79, -187500.02, -185202.72, 187500.00, 187500.00, 32820.47, 187500.00, 0.00, 0.00, 0.00
112, 4214.33, 6507.13, -187500.02, -185205.36, 187500.00, 187500.00, 32716.45, 187500.00, 0.00, 0.00, 0.00
113, 4186.12, 6504.49, -187500.02, -185203.33, 187500.00, 187500.00, 32649.21, 187500.00, 0.00, 0.00, 0.00
114, 4188.94, 6503.31, -187500.02, -185201.61, 187500.00, 187500.00, 32735.83, 187500.00, 0.00, 0.00, 0.00
115, 4221.44, 6510.26, -187500.02, -185202.80, 187500.00, 187500.00, 32819.36, 187500.00, 0.00, 0.00, 0.00
116, 4222.96, 6514.04, -187500.02, -185208.20, 187500.00, 187500.00, 32754.94, 187500.00, 0.00, 0.00, 0.00
117, 4183.87, 6500.62, -187500.02, -185206.48, 187500.00, 187500.00, 32666.36, 187500.00, 0.00, 0.00, 0.00
118, 4179.02, 6497.23, -187500.02, -185204.17, 187500.00, 187500.00, 32721.81, 187500.00, 0.14, 0.83, 0.54
119, 4218.82, 6512.94, -187500.02, -185208.42, 187500.00, 187500.00, 32813.39, 187500.00, 0.00, 0.00, 0.00
120, 4227.27, 6517.08, -187500.02, -185212.77, 187500.00, 187500.00, 32763.39, 187500.00, 0.00, 0.00, 0.00
121, 4181.65, 6497.25, -187500.02, -185211.94, 187500.00, 187500.00, 32656.05, 187500.00, 0.00, 0.00, 0.00
122, 4158.79, 6484.71, -187500.02, -185210.11, 187500.00, 187500.00, 32686.05, 187500.00, 0.00, 0.00, 0.00
123, 4193.39, 6503.60, -187500.02, -185213.00, 187500.00, 187500.00, 32789.74, 187500.00, 0.00, 0.00, 0.00
124, 4209.93, 6518.86, -187500.02, -185217.81, 187500.00, 187500.00, 32777.87, 187500.00, 0.00, 0.00, 0.00
125, 4165.05, 6499.93, -187500.02, -185216.81, 187500.00, 187500.00, 32670.22, 187500.00, 0.00, 0.00, 0.00
126, 4137.71, 6492.60, -187500.02, -185214.02, 187500.00, 187500.00, 32674.38, 187500.00, 0.00, 0.00, 0.00
127, 4160.46, 6505.68, -187500.02, -185213.81, 187500.00, 187500.00, 32785.29, 187500.00, 0.00, 0.00, 0.00
128, 4186.01, 6518.37, -187500.02, -185218.48, 187500.00, 187500.00, 32791.15, 187500.00, 0.15, 0.81, 0.53
129, 4156.49, 6510.19, -187500.02, -185220.98, 187500.00, 187500.00, 32667.65, 187500.00, 0.00, 0.00, 0.00
130, 4124.43, 6500.78, -187500.02, -185217.64, 187500.00, 187500.00, 32645.17, 187500.00, 0.00, 0.00, 0.00
131, 4138.16, 6503.82, -187500.02, -185217.33, 187500.00, 187500.00, 32744.86, 187500.00, 0.00, 0.00, 0.00
132, 4170.19, 6518.91, -187500.02, -185222.23, 187500.00, 187500.00, 32784.53, 187500.00, 0.00, 0.00, 0.00
133, 4148.91, 6512.23, -187500.02, -185224.45, 187500.00, 187500.00, 32676.75, 187500.00, 0.00, 0.00, 0.00
134, 4105.05, 6493.70, -187500.02, -185219.64, 187500.00, 187500.00, 32608.36, 187500.00, 0.00, 0.00, 0.00
135, 4125.33, 6513.16, -187500.02, -185218.58, 187500.00, 187500.00, 32702.05, 187500.00, 0.00, 0.00, 0.00
136, 4167.28, 6529.59, -187500.02, -185224.63, 187500.00, 187500.00, 32756.57, 187500.00, 0.00, 0.00, 0.00
137, 4155.21, 6512.45, -187500.02, -185227.88, 187500.00, 187500.00, 32659.45, 187500.00, 0.00, 0.00, 0.00
138, 4121.64, 6496.47, -187500.02, -185224.92, 187500.00, 187500.00, 32589.31, 187500.00, 0.15, 0.81, 0.53
139, 4129.82, 6499.13, -187500.02, -185224.75, 187500.00, 187500.00, 32668.39, 187500.00, 0.00, 0.00, 0.00
140, 4165.52, 6516.94, -187500.02, -185228.09, 187500.00, 187500.00, 32760.50, 187500.00, 0.00, 0.00, 0.00
141, 4160.40, 6510.71, -187500.02, -185230.75, 187500.00, 187500.00, 32690.86, 187500.00, 0.00, 0.00, 0.00
142, 4113.57, 6483.21, -187500.02, -185230.02, 187500.00, 187500.00, 32589.36, 187500.00, 0.00, 0.00, 0.00
143, 4113.26, 6485.02, -187500.02, -185228.78, 187500.00, 187500.00, 32631.94, 187500.00, 0.00, 0.00, 0.00
144, 4152.89, 6496.98, -187500.02, -185229.89, 187500.00, 187500.00, 32715.49, 187500.00, 0.00, 0.00, 0.00
145, 4168.38, 6501.32, -187500.02, -185233.53, 187500.00, 187500.00, 32684.33, 187500.00, 0.00, 0.00, 0.00
146, 4129.71, 6479.64, -187500.02, -185232.75, 187500.00, 187500.00, 32573.15, 187500.00, 0.00, 0.00, 0.00
147, 4127.23, 6482.88, -187500.02, -185229.38, 187500.00, 187500.00, 32598.23, 187500.00, 0.00, 0.00, 0.00
148, 4168.04, 6496.27, -187500.02, -185232.14, 187500.00, 187500.00, 32702.70, 187500.00, 0.14, 0.85, 0.53
149, 4192.36, 6502.93, -187500.02, -185240.17, 187500.00, 187500.00, 32689.49, 187500.00, 0.00, 0.00, 0.00
150, 4163.06, 6487.73, -187500.02, -185241.44, 187500.00, 187500.00, 32569.06, 187500.00, 0.00, 0.00, 0.00
151, 4141.64, 6471.12, -187500.02, -185235.92, 187500.00, 187500.00, 32555.72, 187500.00, 0.00, 0.00, 0.00
152, 4172.20, 6479.28, -187500.02, -185236.98, 187500.00, 187500.00, 32656.23, 187500.00, 0.00, 0.00, 0.00
153, 4201.19, 6492.40, -187500.02, -185242.73, 187500.00, 187500.00, 32664.26, 187500.00, 0.00, 0.00, 0.00
154, 4169.34, 6479.21, -187500.02, -185245.73, 187500.00, 187500.00, 32550.87, 187500.00, 0.00, 0.00, 0.00
155, 4145.71, 6471.66, -187500.02, -185241.50, 187500.00, 187500.00, 32526.28, 187500.00, 0.00, 0.00, 0.00
156, 4174.32, 6484.75, -187500.02, -185243.61, 187500.00, 187500.00, 32648.74, 187500.00, 0.00, 0.00, 0.00
157, 4206.20, 6493.54, -187500.02, -185249.06, 187500.00, 187500.00, 32690.05, 187500.00, 0.00, 0.00, 0.00
158, 4188.00, 6484.87, -187500.02, -185249.86, 187500.00, 187500.00, 32582.20, 187500.00, 0.13, 0.84, 0.54
159, 4147.41, 6464.59, -187500.02, -185245.42, 187500.00, 187500.00, 32522.26, 187500.00, 0.00, 0.00, 0.00
160, 4153.98, 6458.92, -187500.02, -185245.16, 187500.00, 187500.00, 32612.78, 187500.00, 0.00, 0.00, 0.00
161, 4192.05, 6476.42, -187500.02, -185250.16, 187500.00, 187500.00, 32679.86, 187500.00, 0.00, 0.00, 0.00
162, 4203.71, 6499.19, -187500.02, -185254.98, 187500.00, 187500.00, 32623.13, 187500.00, 0.00, 0.00, 0.00
163, 4167.10, 6485.43, -187500.02, -185253.23, 187500.00, 187500.00, 32549.86, 187500.00, 0.00, 0.00, 0.00
164, 4170.95, 6483.10, -187500.02, -185250.94, 187500.00, 187500.00, 32623.67, 187500.00, 0.00, 0.00, 0.00
165, 4213.53, 6505.94, -187500.02, -185254.98, 187500.00, 187500.00, 32726.44, 187500.00, 0.00, 0.00, 0.00
166, 4211.47, 6501.14, -187500.02, -185257.08, 187500.00, 187500.00, 32664.37, 187500.00, 0.00, 0.00, 0.00
167, 4176.16, 6484.69, -187500.02, -185254.69, 187500.00, 187500.00, 32566.58, 187500.00, 0.00, 0.00, 0.00
168, 4167.93, 6483.19, -187500.02, -185252.69, 187500.00, 187500.00, 32613.43, 187500.00, 0.13, 0.82, 0.53
169, 4198.91, 6489.67, -187500.02, -185258.63, 187500.00, 187500.00, 32705.00, 187500.00, 0.00, 0.00, 0.00
170, 4237.60, 6521.48, -187500.02, -185264.53, 187500.00, 187500.00, 32695.91, 187500.00, 0.00, 0.00, 0.00
171, 4187.00, 6490.54, -187500.02, -185263.25, 187500.00, 187500.00, 32587.54, 187500.00, 0.00, 0.00, 0.00
172, 4157.40, 6469.13, -187500.02, -185256.91, 187500.00, 187500.00, 32607.01, 187500.00, 0.00, 0.00, 0.00
173, 4225.57, 6515.33, -187500.02, -185260.23, 187500.00, 187500.00, 32759.19, 187500.00, 0.00, 0.00, 0.00
174, 4239.01, 6515.18, -187500.02, -185265.69, 187500.00, 187500.00, 32728.67, 187500.00, 0.00, 0.00, 0.00
175, 4200.81, 6493.49, -187500.02, -185265.00, 187500.00, 187500.00, 32606.97, 187500.00, 0.00, 0.00, 0.00
176, 4170.03, 6477.85, -187500.02, -185260.80, 187500.00, 187500.00, 32595.57, 187500.00, 0.00, 0.00, 0.00
177, 4228.77, 6517.84, -187500.02, -185262.09, 187500.00, 187500.00, 32755.59, 187500.00, 0.00, 0.00, 0.00
178, 4256.29, 6526.19, -187500.02, -185266.92, 187500.00, 187500.00, 32761.38, 187500.00, 0.15, 0.81, 0.54
179, 4216.68, 6502.90, -187500.02, -185268.06, 187500.00, 187500.00, 32629.10, 187500.00, 0.00, 0.00, 0.00
180, 4200.67, 6503.82, -187500.02, -185265.94, 187500.00, 187500.00, 32638.37, 187500.00, 0.00, 0.00, 0.00
181, 4203.13, 6491.82, -187500.02, -185266.39, 187500.00, 187500.00, 32727.15, 187500.00, 0.00, 0.00, 0.00
182, 4250.88, 6521.41, -187500.02, -185269.92, 187500.00, 187500.00, 32792.80, 187500.00, 0.00, 0.00, 0.00
183, 4232.73, 6508.92, -187500.02, -185272.58, 187500.00, 187500.00, 32682.25, 187500.00, 0.00, 0.00, 0.00
184, 4193.81, 6493.32, -187500.02, -185269.41, 187500.00, 187500.00, 32625.12, 187500.00, 0.00, 0.00, 0.00
185, 4208.34, 6503.71, -187500.02, -185267.33, 187500.00, 187500.00, 32722.08, 187500.00, 0.00, 0.00, 0.00
186, 4234.63, 6506.21, -187500.02, -185270.67, 187500.00, 187500.00, 32776.02, 187500.00, 0.00, 0.00, 0.00
187, 4224.77, 6498.66, -187500.02, -185276.36, 187500.00, 187500.00, 32707.71, 187500.00, 0.00, 0.00, 0.00
188, 4188.76, 6486.54, -187500.02, -185273.42, 187500.00, 187500.00, 32631.71, 187500.00, 0.16, 0.82, 0.54
189, 4174.61, 6473.11, -187500.02, -185270.23, 187500.00, 187500.00, 32687.37, 187500.00, 0.00, 0.00, 0.00
190, 4234.34, 6511.17, -187500.02, -185276.28, 187500.00, 187500.00, 32807.44, 187500.00, 0.00, 0.00, 0.00
191, 4250.16, 6519.80, -187500.02, -185282.16, 187500.00, 187500.00, 32767.32, 187500.00, 0.00, 0.00, 0.00
192, 4198.35, 6489.81, -187500.02, -185280.84, 187500.00, 187500.00, 32656.81, 187500.00, 0.00, 0.00, 0.00
193, 4182.82, 6484.44, -187500.02, -185277.31, 187500.00, 187500.00, 32695.86, 187500.00, 0.00, 0.00, 0.00
194, 4217.68, 6497.12, -187500.02, -185279.27, 187500.00, 187500.00, 32794.30, 187500.00, 0.00, 0.00, 0.00
195, 4229.02, 6498.01, -187500.02, -185284.13, 187500.00, 187500.00, 32755.12, 187500.00, 0.00, 0.00, 0.00
196, 4189.75, 6484.53, -187500.02, -185284.72, 187500.00, 187500.00, 32648.50, 187500.00, 0.00, 0.00, 0.00
197, 4178.23, 6483.41, -187500.02, -185281.05, 187500.00, 187500.00, 32676.64, 187500.00, 0.14, 0.83, 0.54
198, 4219.07, 6503.20, -187500.02, -185283.69, 187500.00, 187500.00, 32804.04, 187500.00, 0.00, 0.00, 0.00
199, 4239.88, 6510.71, -187500.02, -185290.86, 187500.00, 187500.00, 32795.46, 187500.00, 0.00, 0.00, 0.00
200, 4204.05, 6490.52, -187500.02, -185290.91, 187500.00, 187500.00, 32677.40, 187500.00, 0.00, 0.00, 0.00
201, 4177.27, 6479.68, -187500.02, -185285.63, 187500.00, 187500.00, 32667.74, 187500.00, 0.00, 0.00, 0.00
202, 4202.19, 6483.57, -187500.02, -185287.63, 187500.00, 187500.00, 32770.96, 187500.00, 0.00, 0.00, 0.00
203, 4220.55, 6483.59, -187500.02, -185291.44, 187500.00, 187500.00, 32774.47, 187500.00, 0.00, 0.00, 0.00
204, 4194.75, 6472.75, -187500.02, -185291.86, 187500.00, 187500.00, 32664.17, 187500.00, 0.00, 0.00, 0.00
205, 4173.18, 6473.56, -187500.02, -185289.52, 187500.00, 187500.00, 32634.42, 187500.00, 0.00, 0.00, 0.00
206, 4191.76, 6477.38, -187500.02, -185292.22, 187500.00, 187500.00, 32715.02, 187500.00, 0.00, 0.00, 0.00
207, 4232.53, 6492.42, -187500.02, -185295.34, 187500.00, 187500.00, 32743.14, 187500.00, 0.12, 0.83, 0.53
208, 4212.14, 6479.84, -187500.02, -185297.31, 187500.00, 187500.00, 32624.98, 187500.00, 0.00, 0.00, 0.00
209, 4168.22, 6456.32, -187500.02, -185295.59, 187500.00, 187500.00, 32542.44, 187500.00, 0.00, 0.00, 0.00
210, 4177.05, 6461.13, -187500.02, -185296.83, 187500.00, 187500.00, 32634.26, 187500.00, 0.00, 0.00, 0.00
211, 4220.43, 6486.34, -187500.02, -185299.36, 187500.00, 187500.00, 32717.10, 187500.00, 0.00, 0.00, 0.00
212, 4218.65, 6487.28, -187500.02, -185300.56, 187500.00, 187500.00, 32641.23, 187500.00, 0.00, 0.00, 0.00
213, 4183.46, 6473.00, -187500.02, -185299.11, 187500.00, 187500.00, 32555.25, 187500.00, 0.00, 0.00, 0.00
214, 4172.65, 6457.93, -187500.02, -185296.83, 187500.00, 187500.00, 32598.50, 187500.00, 0.00, 0.00, 0.00
215, 4211.34, 6475.21, -187500.02, -185299.95, 187500.00, 187500.00, 32685.40, 187500.00, 0.00, 0.00, 0.00
216, 4218.87, 6479.08, -187500.02, -185304.36, 187500.00, 187500.00, 32638.46, 187500.00, 0.00, 0.00, 0.00
217, 4183.42, 6463.92, -187500.02, -185303.23, 187500.00, 187500.00, 32543.94, 187500.00, 0.12, 0.83, 0.53
218, 4156.60, 6439.27, -187500.02, -185300.00, 187500.00, 187500.00, 32570.42, 187500.00, 0.00, 0.00, 0.00
219, 4197.46, 6458.89, -187500.02, -185301.13, 187500.00, 187500.00, 32671.01, 187500.00, 0.00, 0.00, 0.00
220, 4225.57, 6479.59, -187500.02, -185304.69, 187500.00, 187500.00, 32649.71, 187500.00, 0.00, 0.00, 0.00
221, 4188.16, 6464.17, -187500.02, -185304.94, 187500.00, 187500.00, 32547.22, 187500.00, 0.00, 0.00, 0.00
222, 4166.43, 6454.40, -187500.02, -185301.03, 187500.00, 187500.00, 32558.44, 187500.00, 0.00, 0.00, 0.00
223, 4198.84, 6467.05, -187500.02, -185300.67, 187500.00, 187500.00, 32658.20, 187500.00, 0.00, 0.00, 0.00
224, 4213.50, 6466.38, -187500.02, -185304.06, 187500.00, 187500.00, 32652.23, 187500.00, 0.00, 0.00, 0.00
225, 4182.48, 6452.03, -187500.02, -185303.55, 187500.00, 187500.00, 32541.50, 187500.00, 0.00, 0.00, 0.00
226, 4159.86, 6446.51, -187500.02, -185297.86, 187500.00, 187500.00, 32532.65, 187500.00, 0.00, 0.00, 0.00
227, 4192.94, 6466.67, -187500.02, -185296.11, 187500.00, 187500.00, 32650.35, 187500.00, 0.13, 0.83, 0.53
228, 4215.78, 6473.33, -187500.02, -185304.27, 187500.00, 187500.00, 32686.05, 187500.00, 0.00, 0.00, 0.00
229, 4184.83, 6448.68, -187500.02, -185306.38, 187500.00, 187500.00, 32577.24, 187500.00, 0.00, 0.00, 0.00
230, 4152.19, 6434.24, -187500.02, -185302.55, 187500.00, 187500.00, 32534.30, 187500.00, 0.00, 0.00, 0.00
231, 4179.57, 6450.94, -187500.02, -185301.67, 187500.00, 187500.00, 32639.96, 187500.00, 0.00, 0.00, 0.00
232, 4223.94, 6475.17, -187500.02, -185302.53, 187500.00, 187500.00, 32702.68, 187500.00, 0.00, 0.00, 0.00
233, 4217.62, 6478.25, -187500.02, -185304.11, 187500.00, 187500.00, 32620.00, 187500.00, 0.00, 0.00, 0.00
234, 4177.83, 6461.38, -187500.02, -185299.36, 187500.00, 187500.00, 32553.26, 187500.00, 0.00, 0.00, 0.00
235, 4169.72, 6446.73, -187500.02, -185297.47, 187500.00, 187500.00, 32628.49, 187500.00, 0.00, 0.00, 0.00
236, 4215.18, 6467.54, -187500.02, -185301.00, 187500.00, 187500.00, 32711.08, 187500.00, 0.00, 0.00, 0.00
237, 4222.45, 6472.55, -187500.02, -185303.28, 187500.00, 187500.00, 32632.05, 187500.00, 0.13, 0.83, 0.53
238, 4184.83, 6459.45, -187500.02, -185299.11, 187500.00, 187500.00, 32547.29, 187500.00, 0.00, 0.00, 0.00
239, 4179.69, 6453.37, -187500.02, -185297.56, 187500.00, 187500.00, 32604.62, 187500.00, 0.00, 0.00, 0.00
240, 4227.41, 6475.93, -187500.02, -185300.30, 187500.00, 187500.00, 32704.85, 187500.00, 0.00, 0.00, 0.00
241, 4240.44, 6486.23, -187500.02, -185303.53, 187500.00, 187500.00, 32661.62, 187500.00, 0.00, 0.00, 0.00
242, 4209.64, 6476.84, -187500.02, -185301.30, 187500.00, 187500.00, 32571.77, 187500.00, 0.00, 0.00, 0.00
243, 4200.12, 6473.53, -187500.02, -185297.59, 187500.00, 187500.00, 32616.85, 187500.00, 0.00, 0.00, 0.00
244, 4232.88, 6484.60, -187500.02, -185298.80, 187500.00, 187500.00, 32722.82, 187500.00, 0.00, 0.00, 0.00
245, 4251.48, 6490.16, -187500.02, -185304.77, 187500.00, 187500.00, 32696.02, 187500.00, 0.00, 0.00, 0.00
246, 4216.19, 6476.80, -187500.02, -185303.23, 187500.00, 187500.00, 32583.48, 187500.00, 0.00, 0.00, 0.00
247, 4186.03, 6462.07, -187500.02, -185299.05, 187500.00, 187500.00, 32591.93, 187500.00, 0.14, 0.83, 0.53
248, 4222.54, 6480.60, -187500.02, -185298.66, 187500.00, 187500.00, 32703.10, 187500.00, 0.00, 0.00, 0.00
249, 4245.98, 6485.60, -187500.02, -185302.58, 187500.00, 187500.00, 32706.95, 187500.00, 0.00, 0.00, 0.00
250, 4224.73, 6481.36, -187500.02, -185302.69, 187500.00, 187500.00, 32598.39, 187500.00, 0.00, 0.00, 0.00
251, 4194.53, 6467.21, -187500.02, -185299.42, 187500.00, 187500.00, 32584.30, 187500.00, 0.00, 0.00, 0.00
252, 4211.14, 6467.90, -187500.02, -185301.13, 187500.00, 187500.00, 32685.58, 187500.00, 0.00, 0.00, 0.00
253, 4238.70, 6480.40, -187500.02, -185304.83, 187500.00, 187500.00, 32718.93, 187500.00, 0.00, 0.00, 0.00
254, 4223.47, 6479.46, -187500.02, -185305.92, 187500.00, 187500.00, 32621.97, 187500.00, 0.00, 0.00, 0.00
255, 4191.65, 6470.02, -187500.02, -185301.28, 187500.00, 187500.00, 32568.46, 187500.00, 0.00, 0.00, 0.00
0, 4206.96, 6479.30, -187500.02, -185299.80, 187500.00, 187500.00, 32672.35, 187500.00, 0.00, 0.00, 0.00
1, 4240.64, 6493.09, -187500.02, -185305.81, 187500.00, 187500.00, 32730.15, 187500.00, 0.14, 0.84, 0.53
2, 4229.96, 6488.62, -187500.02, -185309.39, 187500.00, 187500.00, 32633.39, 187500.00, 0.00, 0.00, 0.00
3, 4186.77, 6465.53, -187500.02, -185307.13, 187500.00, 187500.00, 32553.39, 187500.00, 0.00, 0.00, 0.00
4, 4190.93, 6465.78, -187500.02, -185303.39, 187500.00, 187500.00, 32619.93, 187500.00, 0.00, 0.00, 0.00
5, 4232.59, 6484.98, -187500.02, -185307.75, 187500.00, 187500.00, 32695.35, 187500.00, 0.00, 0.00, 0.00
6, 4233.11, 6488.82, -187500.02, -185311.95, 187500.00, 187500.00, 32623.62, 187500.00, 0.00, 0.00, 0.00
7, 4190.42, 6469.24, -187500.02, -185309.88, 187500.00, 187500.00, 32532.81, 187500.00, 0.00, 0.00, 0.00
8, 4179.49, 6460.21, -187500.02, -185307.02, 187500.00, 187500.00, 32585.96, 187500.00, 0.00, 0.00, 0.00
9, 4220.55, 6480.08, -187500.02, -185309.75, 187500.00, 187500.00, 32685.00, 187500.00, 0.00, 0.00, 0.00
10, 4228.15, 6486.92, -187500.02, -185313.33, 187500.00, 187500.00, 32641.55, 187500.00, 0.00, 0.00, 0.00
11, 4182.75, 6465.47, -187500.02, -185312.56, 187500.00, 187500.00, 32541.57, 187500.00, 0.14, 0.83, 0.53
12, 4161.96, 6459.10, -187500.02, -185308.67, 187500.00, 187500.00, 32585.89, 187500.00, 0.00, 0.00, 0.00
13, 4198.28, 6480.87, -187500.02, -185310.66, 187500.00, 187500.00, 32696.53, 187500.00, 0.00, 0.00, 0.00
14, 4217.95, 6492.09, -187500.02, -185317.61, 187500.00, 187500.00, 32672.95, 187500.00, 0.00, 0.00, 0.00
15, 4180.09, 6473.27, -187500.02, -185316.98, 187500.00, 187500.00, 32547.58, 187500.00, 0.00, 0.00, 0.00
16, 4151.12, 6459.01, -187500.02, -185311.69, 187500.00, 187500.00, 32547.42, 187500.00, 0.00, 0.00, 0.00
17, 4185.54, 6473.82, -187500.02, -185313.64, 187500.00, 187500.00, 32659.50, 187500.00, 0.00, 0.00, 0.00
18, 4218.11, 6481.65, -187500.02, -185318.06, 187500.00, 187500.00, 32668.93, 187500.00, 0.00, 0.00, 0.00
19, 4194.75, 6473.85, -187500.02, -185319.25, 187500.00, 187500.00, 32563.54, 187500.00, 0.00, 0.00, 0.00
20, 4160.06, 6457.46, -187500.02, -185315.33, 187500.00, 187500.00, 32530.35, 187500.00, 0.14, 0.83, 0.54
21, 4175.82, 6467.48, -187500.02, -185313.86, 187500.00, 187500.00, 32640.07, 187500.00, 0.00, 0.00, 0.00
22, 4198.17, 6468.24, -187500.02, -185319.72, 187500.00, 187500.00, 32684.69, 187500.00, 0.00, 0.00, 0.00
23, 4170.25, 6448.14, -187500.02, -185323.02, 187500.00, 187500.00, 32585.22, 187500.00, 0.00, 0.00, 0.00
24, 4115.40, 6405.90, -187500.02, -185322.06, 187500.00, 187500.00, 32521.74, 187500.00, 0.00, 0.00, 0.00
25, 4110.22, 6394.74, -187500.02, -185320.31, 187500.00, 187500.00, 32604.94, 187500.00, 0.00, 0.00, 0.00
26, 4111.13, 6373.42, -187500.02, -185325.84, 187500.00, 187500.00, 32671.30, 187500.00, 0.00, 0.00, 0.00
27, 4067.35, 6331.49, -187500.02, -185328.39, 187500.00, 187500.00, 32584.93, 187500.00, 0.00, 0.00, 0.00
28, 4003.51, 6285.71, -187500.02, -185325.44, 187500.00, 187500.00, 32502.18, 187500.00, 0.00, 0.00, 0.00
29, 3966.29, 6240.85, -187500.02, -185323.30, 187500.00, 187500.00, 32573.42, 187500.00, 0.00, 0.00, 0.00
30, 3983.51, 6232.18, -187500.02, -185325.84, 187500.00, 187500.00, 32660.17, 187500.00, 0.15, 0.83, 0.54
31, 3967.28, 6214.43, -187500.02, -185328.41, 187500.00, 187500.00, 32607.26, 187500.00, 0.00, 0.00, 0.00
32, 3905.72, 6178.63, -187500.02, -185326.94, 187500.00, 187500.00, 32511.01, 187500.00, 0.00, 0.00, 0.00
33, 3885.11, 6166.91, -187500.02, -185323.98, 187500.00, 187500.00, 32556.10, 187500.00, 0.00, 0.00, 0.00
34, 3898.48, 6166.58, -187500.02, -185327.77, 187500.00, 187500.00, 32651.56, 187500.00, 0.00, 0.00, 0.00
35, 3896.56, 6157.79, -187500.02, -185333.14, 187500.00, 187500.00, 32607.01, 187500.00, 0.00, 0.00, 0.00
36, 3852.86, 6135.46, -187500.02, -185332.03, 187500.00, 187500.00, 32496.96, 187500.00, 0.00, 0.00, 0.00
37, 3827.09, 6123.17, -187500.02, -185326.84, 187500.00, 187500.00, 32517.07, 187500.00, 0.00, 0.00, 0.00
38, 3861.02, 6130.77, -187500.02, -185328.28, 187500.00, 187500.00, 32618.84, 187500.00, 0.00, 0.00, 0.00
39, 3888.78, 6140.27, -187500.02, -185335.83, 187500.00, 187500.00, 32596.35, 187500.00, 0.00, 0.00, 0.00
40, 3862.25, 6130.21, -187500.02, -185333.64, 187500.00, 187500.00, 32475.09, 187500.00, 0.15, 0.82, 0.54
41, 3837.32, 6117.45, -187500.02, -185325.59, 187500.00, 187500.00, 32472.43, 187500.00, 0.00, 0.00, 0.00
42, 3870.94, 6133.27, -187500.02, -185327.50, 187500.00, 187500.00, 32582.99, 187500.00, 0.00, 0.00, 0.00
43, 3904.92, 6149.55, -187500.02, -185331.36, 187500.00, 187500.00, 32600.98, 187500.00, 0.00, 0.00, 0.00
44, 3884.04, 6140.58, -187500.02, -185332.83, 187500.00, 187500.00, 32492.69, 187500.00, 0.00, 0.00, 0.00
45, 3863.43, 6138.55, -187500.02, -185326.80, 187500.00, 187500.00, 32461.91, 187500.00, 0.00, 0.00, 0.00
46, 3883.19, 6143.87, -187500.02, -185323.06, 187500.00, 187500.00, 32565.44, 187500.00, 0.00, 0.00, 0.00
47, 3928.52, 6168.88, -187500.02, -185326.89, 187500.00, 187500.00, 32616.09, 187500.00, 0.00, 0.00, 0.00
48, 3931.40, 6180.06, -187500.02, -185327.34, 187500.00, 187500.00, 32516.71, 187500.00, 0.00, 0.00, 0.00
49, 3898.99, 6175.92, -187500.02, -185322.31, 187500.00, 187500.00, 32458.71, 187500.00, 0.00, 0.00, 0.00
50, 3923.18, 6188.93, -187500.02, -185319.14, 187500.00, 187500.00, 32536.79, 187500.00, 0.15, 0.83, 0.54
51, 3973.94, 6218.30, -187500.02, -185322.20, 187500.00, 187500.00, 32603.21, 187500.00, 0.00, 0.00, 0.00
52, 3971.48, 6219.40, -187500.02, -185322.91, 187500.00, 187500.00, 32521.45, 187500.00, 0.00, 0.00, 0.00
53, 3939.11, 6215.98, -187500.02, -185322.02, 187500.00, 187500.00, 32440.87, 187500.00, 0.00, 0.00, 0.00
54, 3944.73, 6224.38, -187500.02, -185318.16, 187500.00, 187500.00, 32503.64, 187500.00, 0.00, 0.00, 0.00
55, 3988.53, 6246.51, -187500.02, -185316.45, 187500.00, 187500.00, 32590.94, 187500.00, 0.00, 0.00, 0.00
56, 4002.91, 6260.39, -187500.02, -185316.67, 187500.00, 187500.00, 32533.21, 187500.00, 0.00, 0.00, 0.00
57, 3964.10, 6250.06, -187500.02, -185313.36, 187500.00, 187500.00, 32432.67, 187500.00, 0.00, 0.00, 0.00
58, 3954.11, 6247.87, -187500.02, -185308.97, 187500.00, 187500.00, 32472.46, 187500.00, 0.00, 0.00, 0.00
59, 3998.70, 6272.86, -187500.02, -185310.14, 187500.00, 187500.00, 32565.93, 187500.00, 0.00, 0.00, 0.00
60, 4024.23, 6295.68, -187500.02, -185313.59, 187500.00, 187500.00, 32539.87, 187500.00, 0.15, 0.83, 0.54
61, 3996.42, 6290.29, -187500.02, -185310.70, 187500.00, 187500.00, 32432.69, 187500.00, 0.00, 0.00, 0.00
62, 3971.14, 6277.69, -187500.02, -185305.05, 187500.00, 187500.00, 32434.64, 187500.00, 0.00, 0.00, 0.00
63, 4009.28, 6296.35, -187500.02, -185305.61, 187500.00, 187500.00, 32536.36, 187500.00, 0.00, 0.00, 0.00
64, 4045.11, 6316.85, -187500.02, -185306.66, 187500.00, 187500.00, 32519.17, 187500.00, 0.00, 0.00, 0.00
65, 4023.98, 6314.95, -187500.02, -185303.83, 187500.00, 187500.00, 32405.98, 187500.00, 0.00, 0.00, 0.00
66, 3992.49, 6299.75, -187500.02, -185298.50, 187500.00, 187500.00, 32387.54, 187500.00, 0.00, 0.00, 0.00
67, 4021.88, 6314.21, -187500.02, -185296.78, 187500.00, 187500.00, 32491.97, 187500.00, 0.00, 0.00, 0.00
68, 4062.72, 6335.51, -187500.02, -185298.33, 187500.00, 187500.00, 32518.63, 187500.00, 0.00, 0.00, 0.00
69, 4039.68, 6326.37, -187500.02, -185296.33, 187500.00, 187500.00, 32421.34, 187500.00, 0.00, 0.00, 0.00
70, 4005.16, 6312.00, -187500.02, -185291.23, 187500.00, 187500.00, 32372.52, 187500.00, 0.14, 0.83, 0.54
71, 4024.83, 6321.61, -187500.02, -185288.84, 187500.00, 187500.00, 32466.24, 187500.00, 0.00, 0.00, 0.00
72, 4068.38, 6344.74, -187500.02, -185289.66, 187500.00, 187500.00, 32528.69, 187500.00, 0.00, 0.00, 0.00
73, 4055.14, 6341.10, -187500.02, -185289.39, 187500.00, 187500.00, 32440.40, 187500.00, 0.00, 0.00, 0.00
74, 4009.41, 6319.11, -187500.02, -185285.27, 187500.00, 187500.00, 32368.65, 187500.00, 0.00, 0.00, 0.00
75, 4017.95, 6324.34, -187500.02, -185282.03, 187500.00, 187500.00, 32448.38, 187500.00, 0.00, 0.00, 0.00
76, 4062.68, 6351.58, -187500.02, -185283.30, 187500.00, 187500.00, 32516.74, 187500.00, 0.00, 0.00, 0.00
77, 4063.68, 6357.28, -187500.02, -185284.28, 187500.00, 187500.00, 32424.20, 187500.00, 0.00, 0.00, 0.00
78, 4026.20, 6344.68, -187500.02, -185278.13, 187500.00, 187500.00, 32329.21, 187500.00, 0.00, 0.00, 0.00
79, 4023.40, 6343.96, -187500.02, -185272.22, 187500.00, 187500.00, 32385.46, 187500.00, 0.00, 0.00, 0.00
80, 4064.24, 6363.92, -187500.02, -185272.39, 187500.00, 187500.00, 32475.94, 187500.00, 0.15, 0.83, 0.54
81, 4073.45, 6367.41, -187500.02, -185273.48, 187500.00, 187500.00, 32421.34, 187500.00, 0.00, 0.00, 0.00
82, 4031.61, 6345.50, -187500.02, -185268.80, 187500.00, 187500.00, 32318.97, 187500.00, 0.00, 0.00, 0.00
83, 4016.56, 6332.88, -187500.02, -185262.30, 187500.00, 187500.00, 32359.02, 187500.00, 0.00, 0.00, 0.00
84, 4057.09, 6350.64, -187500.02, -185261.58, 187500.00, 187500.00, 32460.59, 187500.00, 0.00, 0.00, 0.00
85, 4084.85, 6367.92, -187500.02, -185266.03, 187500.00, 187500.00, 32435.42, 187500.00, 0.00, 0.00, 0.00
86, 4056.22, 6360.08, -187500.02, -185262.34, 187500.00, 187500.00, 32327.60, 187500.00, 0.00, 0.00, 0.00
87, 4037.28, 6352.72, -187500.02, -185256.77, 187500.00, 187500.00, 32330.59, 187500.00, 0.00, 0.00, 0.00
88, 4069.69, 6365.64, -187500.02, -185254.67, 187500.00, 187500.00, 32423.13, 187500.00, 0.00, 0.00, 0.00
89, 4100.36, 6384.40, -187500.02, -185252.23, 187500.00, 187500.00, 32415.64, 187500.00, 0.00, 0.00, 0.00
90, 4076.96, 6378.92, -187500.02, -185249.22, 187500.00, 187500.00, 32299.79, 187500.00, 0.14, 0.83, 0.53
91, 4048.30, 6364.57, -187500.02, -185243.78, 187500.00, 187500.00, 32279.45, 187500.00, 0.00, 0.00, 0.00
92, 4075.57, 6375.43, -187500.02, -185240.50, 187500.00, 187500.00, 32392.50, 187500.00, 0.00, 0.00, 0.00
93, 4109.48, 6387.52, -187500.02, -185245.38, 187500.00, 187500.00, 32413.45, 187500.00, 0.00, 0.00, 0.00
94, 4089.90, 6381.85, -187500.02, -185243.45, 187500.00, 187500.00, 32301.53, 187500.00, 0.00, 0.00, 0.00
95, 4052.10, 6367.48, -187500.02, -185234.48, 187500.00, 187500.00, 32255.53, 187500.00, 0.00, 0.00, 0.00
96, 4064.98, 6372.08, -187500.02, -185230.22, 187500.00, 187500.00, 32350.19, 187500.00, 0.00, 0.00, 0.00
97, 4106.33, 6393.81, -187500.02, -185230.67, 187500.00, 187500.00, 32396.60, 187500.00, 0.00, 0.00, 0.00
98, 4094.59, 6390.34, -187500.02, -185229.56, 187500.00, 187500.00, 32297.02, 187500.00, 0.00, 0.00, 0.00
99, 4052.28, 6375.88, -187500.02, -185223.02, 187500.00, 187500.00, 32219.75, 187500.00, 0.00, 0.00, 0.00
100, 4052.73, 6376.01, -187500.02, -185218.58, 187500.00, 187500.00, 32294.38, 187500.00, 0.13, 0.82, 0.53
101, 4095.02, 6398.66, -187500.02, -185218.02, 187500.00, 187500.00, 32367.96, 187500.00, 0.00, 0.00, 0.00
